0
Diameter:	   5.88
   1.00
Area:	  27.1547
GaugeLength:	  50.00
2016-3-28
Aco 1020
1
DataNumber:	2093
index	Load(kN)	Defor(mm)	Stroke(mm)	Time(s)
    0	  0.0240	  0.0000	   0.004	   0.195
    1	  0.0240	  0.0000	   0.006	   0.395
    2	  0.0260	  0.0000	   0.010	   0.595
    3	  0.0280	  0.0000	   0.014	   0.795
    4	  0.0280	  0.0000	   0.016	   0.995
    5	  0.0300	  0.0000	   0.020	   1.195
    6	  0.0300	  0.0000	   0.024	   1.395
    7	  0.0300	  0.0000	   0.026	   1.595
    8	  0.0320	  0.0020	   0.030	   1.795
    9	  0.0320	  0.0000	   0.034	   1.995
   10	  0.0320	  0.0000	   0.037	   2.195
   11	  0.0320	  0.0020	   0.040	   2.395
   12	  0.0320	  0.0000	   0.044	   2.595
   13	  0.0320	  0.0020	   0.047	   2.795
   14	  0.0320	  0.0020	   0.050	   2.995
   15	  0.0340	  0.0020	   0.054	   3.195
   16	  0.0340	  0.0020	   0.056	   3.395
   17	  0.0340	  0.0020	   0.060	   3.595
   18	  0.0340	  0.0020	   0.064	   3.795
   19	  0.0360	  0.0020	   0.066	   3.995
   20	  0.0400	  0.0020	   0.070	   4.195
   21	  0.0460	  0.0020	   0.074	   4.395
   22	  0.0500	  0.0020	   0.076	   4.595
   23	  0.0540	  0.0020	   0.080	   4.795
   24	  0.0560	  0.0020	   0.084	   4.995
   25	  0.0620	  0.0020	   0.086	   5.195
   26	  0.0660	  0.0020	   0.090	   5.395
   27	  0.0700	  0.0020	   0.094	   5.595
   28	  0.0760	  0.0020	   0.096	   5.795
   29	  0.0800	  0.0020	   0.100	   5.995
   30	  0.0840	  0.0020	   0.102	   6.195
   31	  0.0900	  0.0040	   0.106	   6.395
   32	  0.0940	  0.0040	   0.110	   6.595
   33	  0.0960	  0.0040	   0.112	   6.795
   34	  0.0960	  0.0040	   0.116	   6.995
   35	  0.0960	  0.0040	   0.120	   7.195
   36	  0.0960	  0.0040	   0.122	   7.395
   37	  0.0980	  0.0040	   0.126	   7.595
   38	  0.0980	  0.0040	   0.130	   7.795
   39	  0.0980	  0.0040	   0.132	   7.995
   40	  0.1000	  0.0040	   0.136	   8.195
   41	  0.1000	  0.0040	   0.140	   8.395
   42	  0.1020	  0.0040	   0.142	   8.595
   43	  0.1020	  0.0040	   0.146	   8.795
   44	  0.1020	  0.0040	   0.150	   8.995
   45	  0.1020	  0.0040	   0.153	   9.195
   46	  0.1040	  0.0040	   0.156	   9.395
   47	  0.1040	  0.0040	   0.159	   9.595
   48	  0.1040	  0.0040	   0.162	   9.795
   49	  0.1060	  0.0040	   0.166	   9.995
   50	  0.1060	  0.0040	   0.169	  10.195
   51	  0.1100	  0.0040	   0.172	  10.395
   52	  0.1140	  0.0040	   0.176	  10.595
   53	  0.1200	  0.0040	   0.179	  10.795
   54	  0.1240	  0.0040	   0.182	  10.995
   55	  0.1280	  0.0040	   0.185	  11.195
   56	  0.1320	  0.0040	   0.189	  11.395
   57	  0.1380	  0.0060	   0.191	  11.595
   58	  0.1400	  0.0060	   0.195	  11.795
   59	  0.1440	  0.0060	   0.199	  11.995
   60	  0.1480	  0.0060	   0.201	  12.195
   61	  0.1520	  0.0060	   0.205	  12.395
   62	  0.1600	  0.0060	   0.209	  12.595
   63	  0.1660	  0.0060	   0.211	  12.795
   64	  0.1740	  0.0060	   0.215	  12.995
   65	  0.1820	  0.0080	   0.218	  13.195
   66	  0.1900	  0.0080	   0.221	  13.395
   67	  0.1980	  0.0080	   0.225	  13.595
   68	  0.2060	  0.0080	   0.227	  13.795
   69	  0.2120	  0.0080	   0.231	  13.995
   70	  0.2200	  0.0080	   0.235	  14.195
   71	  0.2300	  0.0100	   0.237	  14.395
   72	  0.2360	  0.0100	   0.241	  14.595
   73	  0.2440	  0.0100	   0.244	  14.795
   74	  0.2520	  0.0100	   0.247	  14.995
   75	  0.2620	  0.0100	   0.250	  15.195
   76	  0.2700	  0.0100	   0.254	  15.395
   77	  0.2780	  0.0100	   0.257	  15.595
   78	  0.2860	  0.0120	   0.260	  15.795
   79	  0.2960	  0.0120	   0.264	  15.995
   80	  0.3060	  0.0120	   0.266	  16.195
   81	  0.3160	  0.0120	   0.270	  16.395
   82	  0.3260	  0.0120	   0.274	  16.595
   83	  0.3340	  0.0120	   0.276	  16.795
   84	  0.3440	  0.0120	   0.280	  16.995
   85	  0.3520	  0.0140	   0.282	  17.195
   86	  0.3620	  0.0140	   0.286	  17.395
   87	  0.3740	  0.0140	   0.290	  17.595
   88	  0.3840	  0.0140	   0.292	  17.795
   89	  0.3960	  0.0100	   0.296	  17.995
   90	  0.4080	  0.0120	   0.300	  18.195
   91	  0.4200	  0.0120	   0.302	  18.395
   92	  0.4340	  0.0120	   0.306	  18.595
   93	  0.4480	  0.0120	   0.309	  18.795
   94	  0.4620	  0.0140	   0.312	  18.995
   95	  0.4780	  0.0140	   0.316	  19.195
   96	  0.4940	  0.0140	   0.319	  19.395
   97	  0.5120	  0.0140	   0.322	  19.595
   98	  0.5280	  0.0140	   0.326	  19.795
   99	  0.5460	  0.0140	   0.329	  19.995
  100	  0.5640	  0.0160	   0.332	  20.195
  101	  0.5820	  0.0160	   0.335	  20.395
  102	  0.6020	  0.0160	   0.339	  20.595
  103	  0.6220	  0.0160	   0.343	  20.795
  104	  0.6400	  0.0180	   0.345	  20.995
  105	  0.6600	  0.0180	   0.349	  21.195
  106	  0.6800	  0.0180	   0.351	  21.395
  107	  0.7000	  0.0180	   0.355	  21.595
  108	  0.7200	  0.0180	   0.359	  21.795
  109	  0.7420	  0.0200	   0.361	  21.995
  110	  0.7620	  0.0200	   0.365	  22.195
  111	  0.7840	  0.0200	   0.369	  22.395
  112	  0.8040	  0.0200	   0.371	  22.595
  113	  0.8260	  0.0220	   0.375	  22.795
  114	  0.8480	  0.0220	   0.377	  22.995
  115	  0.8680	  0.0220	   0.381	  23.195
  116	  0.8900	  0.0220	   0.385	  23.395
  117	  0.9120	  0.0220	   0.387	  23.595
  118	  0.9340	  0.0220	   0.391	  23.795
  119	  0.9580	  0.0240	   0.395	  23.995
  120	  0.9800	  0.0240	   0.397	  24.195
  121	  1.0020	  0.0240	   0.401	  24.395
  122	  1.0260	  0.0240	   0.405	  24.595
  123	  1.0500	  0.0260	   0.407	  24.795
  124	  1.0760	  0.0260	   0.411	  24.995
  125	  1.1000	  0.0260	   0.414	  25.195
  126	  1.1280	  0.0260	   0.417	  25.395
  127	  1.1540	  0.0260	   0.421	  25.595
  128	  1.1840	  0.0260	   0.424	  25.795
  129	  1.2120	  0.0280	   0.427	  25.995
  130	  1.2400	  0.0280	   0.431	  26.195
  131	  1.2680	  0.0280	   0.434	  26.395
  132	  1.2960	  0.0280	   0.438	  26.595
  133	  1.3240	  0.0300	   0.441	  26.795
  134	  1.3540	  0.0300	   0.444	  26.995
  135	  1.3820	  0.0300	   0.447	  27.195
  136	  1.4100	  0.0300	   0.450	  27.395
  137	  1.4380	  0.0300	   0.454	  27.595
  138	  1.4660	  0.0300	   0.457	  27.795
  139	  1.4940	  0.0320	   0.460	  27.995
  140	  1.5240	  0.0320	   0.464	  28.195
  141	  1.5540	  0.0320	   0.468	  28.395
  142	  1.5840	  0.0320	   0.470	  28.595
  143	  1.6160	  0.0320	   0.474	  28.795
  144	  1.6460	  0.0320	   0.476	  28.995
  145	  1.6760	  0.0320	   0.480	  29.195
  146	  1.7060	  0.0340	   0.484	  29.395
  147	  1.7360	  0.0340	   0.486	  29.595
  148	  1.7660	  0.0340	   0.490	  29.795
  149	  1.7980	  0.0340	   0.494	  29.995
  150	  1.8300	  0.0340	   0.496	  30.195
  151	  1.8600	  0.0340	   0.500	  30.395
  152	  1.8900	  0.0360	   0.502	  30.595
  153	  1.9240	  0.0360	   0.506	  30.795
  154	  1.9540	  0.0360	   0.510	  30.995
  155	  1.9860	  0.0360	   0.512	  31.195
  156	  2.0180	  0.0360	   0.516	  31.395
  157	  2.0480	  0.0360	   0.520	  31.595
  158	  2.0800	  0.0360	   0.522	  31.795
  159	  2.1120	  0.0380	   0.526	  31.995
  160	  2.1440	  0.0380	   0.529	  32.195
  161	  2.1780	  0.0380	   0.532	  32.395
  162	  2.2080	  0.0380	   0.536	  32.595
  163	  2.2400	  0.0380	   0.539	  32.795
  164	  2.2740	  0.0380	   0.542	  32.995
  165	  2.3040	  0.0400	   0.546	  33.195
  166	  2.3360	  0.0400	   0.549	  33.395
  167	  2.3660	  0.0400	   0.553	  33.595
  168	  2.3980	  0.0400	   0.555	  33.795
  169	  2.4280	  0.0400	   0.559	  33.995
  170	  2.4600	  0.0400	   0.562	  34.195
  171	  2.4900	  0.0420	   0.565	  34.395
  172	  2.5220	  0.0420	   0.569	  34.595
  173	  2.5540	  0.0420	   0.572	  34.795
  174	  2.5860	  0.0420	   0.575	  34.995
  175	  2.6160	  0.0420	   0.579	  35.195
  176	  2.6460	  0.0420	   0.582	  35.395
  177	  2.6780	  0.0420	   0.585	  35.595
  178	  2.7100	  0.0440	   0.589	  35.795
  179	  2.7400	  0.0440	   0.591	  35.995
  180	  2.7720	  0.0440	   0.595	  36.195
  181	  2.8020	  0.0440	   0.599	  36.395
  182	  2.8340	  0.0440	   0.601	  36.595
  183	  2.8660	  0.0440	   0.605	  36.795
  184	  2.8960	  0.0440	   0.609	  36.995
  185	  2.9260	  0.0440	   0.611	  37.195
  186	  2.9580	  0.0460	   0.615	  37.395
  187	  2.9880	  0.0460	   0.619	  37.595
  188	  3.0200	  0.0460	   0.621	  37.795
  189	  3.0500	  0.0460	   0.625	  37.995
  190	  3.0800	  0.0460	   0.629	  38.195
  191	  3.1100	  0.0460	   0.632	  38.395
  192	  3.1420	  0.0480	   0.635	  38.595
  193	  3.1720	  0.0480	   0.639	  38.795
  194	  3.2020	  0.0480	   0.642	  38.995
  195	  3.2320	  0.0480	   0.645	  39.195
  196	  3.2640	  0.0480	   0.649	  39.395
  197	  3.2940	  0.0480	   0.651	  39.595
  198	  3.3240	  0.0480	   0.652	  39.795
  199	  3.3540	  0.0500	   0.656	  39.995
  200	  3.3860	  0.0500	   0.660	  40.195
  201	  3.4160	  0.0500	   0.664	  40.395
  202	  3.4460	  0.0500	   0.666	  40.595
  203	  3.4760	  0.0500	   0.670	  40.795
  204	  3.5080	  0.0500	   0.674	  40.995
  205	  3.5380	  0.0500	   0.678	  41.195
  206	  3.5680	  0.0500	   0.680	  41.395
  207	  3.5980	  0.0520	   0.684	  41.595
  208	  3.6280	  0.0520	   0.688	  41.795
  209	  3.6580	  0.0520	   0.691	  41.995
  210	  3.6880	  0.0520	   0.694	  42.195
  211	  3.7180	  0.0520	   0.697	  42.395
  212	  3.7480	  0.0520	   0.701	  42.595
  213	  3.7780	  0.0520	   0.704	  42.795
  214	  3.8080	  0.0520	   0.707	  42.995
  215	  3.8380	  0.0540	   0.711	  43.195
  216	  3.8660	  0.0540	   0.715	  43.395
  217	  3.8960	  0.0540	   0.717	  43.595
  218	  3.9240	  0.0540	   0.721	  43.795
  219	  3.9540	  0.0540	   0.725	  43.995
  220	  3.9840	  0.0560	   0.729	  44.195
  221	  4.0140	  0.0560	   0.731	  44.395
  222	  4.0440	  0.0560	   0.735	  44.595
  223	  4.0740	  0.0560	   0.739	  44.795
  224	  4.1040	  0.0560	   0.741	  44.995
  225	  4.1320	  0.0560	   0.745	  45.195
  226	  4.1620	  0.0560	   0.749	  45.395
  227	  4.1900	  0.0580	   0.752	  45.595
  228	  4.2200	  0.0580	   0.755	  45.795
  229	  4.2480	  0.0580	   0.759	  45.995
  230	  4.2780	  0.0580	   0.762	  46.195
  231	  4.3080	  0.0580	   0.765	  46.395
  232	  4.3360	  0.0580	   0.769	  46.595
  233	  4.3660	  0.0580	   0.772	  46.795
  234	  4.3940	  0.0580	   0.776	  46.995
  235	  4.4240	  0.0600	   0.779	  47.195
  236	  4.4520	  0.0600	   0.782	  47.395
  237	  4.4780	  0.0600	   0.786	  47.595
  238	  4.5080	  0.0600	   0.789	  47.795
  239	  4.5360	  0.0600	   0.792	  47.995
  240	  4.5620	  0.0600	   0.796	  48.195
  241	  4.5920	  0.0600	   0.799	  48.395
  242	  4.6200	  0.0600	   0.803	  48.595
  243	  4.6480	  0.0620	   0.806	  48.795
  244	  4.6760	  0.0620	   0.810	  48.995
  245	  4.7040	  0.0620	   0.812	  49.195
  246	  4.7320	  0.0620	   0.816	  49.395
  247	  4.7580	  0.0620	   0.820	  49.595
  248	  4.7860	  0.0620	   0.824	  49.795
  249	  4.8120	  0.0640	   0.826	  49.995
  250	  4.8400	  0.0620	   0.830	  50.195
  251	  4.8660	  0.0640	   0.834	  50.395
  252	  4.8940	  0.0640	   0.837	  50.595
  253	  4.9200	  0.0640	   0.840	  50.795
  254	  4.9480	  0.0640	   0.844	  50.995
  255	  4.9740	  0.0640	   0.847	  51.195
  256	  5.0000	  0.0640	   0.850	  51.395
  257	  5.0280	  0.0640	   0.854	  51.595
  258	  5.0540	  0.0640	   0.857	  51.795
  259	  5.0800	  0.0660	   0.861	  51.995
  260	  5.1060	  0.0660	   0.864	  52.195
  261	  5.1320	  0.0660	   0.868	  52.395
  262	  5.1560	  0.0660	   0.871	  52.595
  263	  5.1840	  0.0660	   0.874	  52.795
  264	  5.2080	  0.0660	   0.877	  52.995
  265	  5.2340	  0.0660	   0.881	  53.195
  266	  5.2600	  0.0660	   0.884	  53.395
  267	  5.2840	  0.0680	   0.887	  53.595
  268	  5.3080	  0.0680	   0.891	  53.795
  269	  5.3320	  0.0680	   0.895	  53.995
  270	  5.3560	  0.0680	   0.897	  54.195
  271	  5.3820	  0.0680	   0.901	  54.395
  272	  5.4040	  0.0680	   0.905	  54.595
  273	  5.4280	  0.0680	   0.907	  54.795
  274	  5.4500	  0.0680	   0.911	  54.995
  275	  5.4740	  0.0680	   0.915	  55.195
  276	  5.4980	  0.0700	   0.917	  55.395
  277	  5.5200	  0.0700	   0.921	  55.595
  278	  5.5440	  0.0700	   0.925	  55.795
  279	  5.5660	  0.0700	   0.927	  55.995
  280	  5.5900	  0.0700	   0.931	  56.195
  281	  5.6140	  0.0700	   0.935	  56.395
  282	  5.6360	  0.0700	   0.939	  56.595
  283	  5.6600	  0.0700	   0.941	  56.795
  284	  5.6840	  0.0700	   0.945	  56.995
  285	  5.7080	  0.0700	   0.949	  57.195
  286	  5.7300	  0.0720	   0.951	  57.395
  287	  5.7540	  0.0720	   0.955	  57.595
  288	  5.7780	  0.0720	   0.959	  57.795
  289	  5.8000	  0.0720	   0.962	  57.995
  290	  5.8220	  0.0720	   0.965	  58.195
  291	  5.8460	  0.0720	   0.969	  58.395
  292	  5.8680	  0.0720	   0.972	  58.595
  293	  5.8920	  0.0720	   0.975	  58.795
  294	  5.9140	  0.0720	   0.979	  58.995
  295	  5.9360	  0.0720	   0.982	  59.195
  296	  5.9580	  0.0740	   0.985	  59.395
  297	  5.9820	  0.0740	   0.989	  59.595
  298	  6.0040	  0.0740	   0.993	  59.795
  299	  6.0260	  0.0740	   0.996	  59.995
  300	  6.0460	  0.0740	   0.999	  60.195
  301	  6.0700	  0.0740	   1.002	  60.395
  302	  6.0900	  0.0740	   1.006	  60.595
  303	  6.1120	  0.0740	   1.009	  60.795
  304	  6.1340	  0.0740	   1.012	  60.995
  305	  6.1560	  0.0740	   1.016	  61.195
  306	  6.1800	  0.0740	   1.019	  61.395
  307	  6.2000	  0.0760	   1.022	  61.595
  308	  6.2220	  0.0760	   1.026	  61.795
  309	  6.2440	  0.0760	   1.029	  61.995
  310	  6.2660	  0.0760	   1.033	  62.195
  311	  6.2880	  0.0760	   1.036	  62.395
  312	  6.3080	  0.0760	   1.039	  62.595
  313	  6.3300	  0.0760	   1.043	  62.795
  314	  6.3520	  0.0760	   1.046	  62.995
  315	  6.3720	  0.0760	   1.050	  63.195
  316	  6.3940	  0.0780	   1.053	  63.395
  317	  6.4160	  0.0780	   1.056	  63.595
  318	  6.4380	  0.0780	   1.060	  63.795
  319	  6.4600	  0.0780	   1.062	  63.995
  320	  6.4800	  0.0780	   1.066	  64.195
  321	  6.5000	  0.0780	   1.070	  64.395
  322	  6.5220	  0.0780	   1.072	  64.595
  323	  6.5420	  0.0780	   1.076	  64.795
  324	  6.5640	  0.0780	   1.080	  64.995
  325	  6.5840	  0.0780	   1.084	  65.195
  326	  6.6060	  0.0780	   1.086	  65.395
  327	  6.6260	  0.0800	   1.090	  65.595
  328	  6.6480	  0.0800	   1.094	  65.795
  329	  6.6680	  0.0800	   1.097	  65.995
  330	  6.6900	  0.0800	   1.100	  66.195
  331	  6.7100	  0.0800	   1.104	  66.395
  332	  6.7300	  0.0800	   1.107	  66.595
  333	  6.7520	  0.0800	   1.110	  66.795
  334	  6.7720	  0.0800	   1.114	  66.995
  335	  6.7940	  0.0800	   1.117	  67.195
  336	  6.8140	  0.0800	   1.120	  67.395
  337	  6.8340	  0.0820	   1.124	  67.595
  338	  6.8540	  0.0820	   1.127	  67.795
  339	  6.8740	  0.0820	   1.131	  67.995
  340	  6.8960	  0.0820	   1.134	  68.195
  341	  6.9160	  0.0820	   1.137	  68.395
  342	  6.9340	  0.0820	   1.141	  68.595
  343	  6.9560	  0.0820	   1.144	  68.795
  344	  6.9740	  0.0820	   1.147	  68.995
  345	  6.9960	  0.0820	   1.151	  69.195
  346	  7.0160	  0.0840	   1.154	  69.395
  347	  7.0380	  0.0840	   1.158	  69.595
  348	  7.0580	  0.0840	   1.161	  69.795
  349	  7.0800	  0.0820	   1.164	  69.995
  350	  7.0980	  0.0840	   1.168	  70.195
  351	  7.1200	  0.0840	   1.171	  70.395
  352	  7.1400	  0.0840	   1.174	  70.595
  353	  7.1600	  0.0840	   1.178	  70.795
  354	  7.1820	  0.0840	   1.181	  70.995
  355	  7.2020	  0.0840	   1.184	  71.195
  356	  7.2240	  0.0840	   1.188	  71.395
  357	  7.2440	  0.0860	   1.191	  71.595
  358	  7.2660	  0.0860	   1.195	  71.795
  359	  7.2860	  0.0860	   1.197	  71.995
  360	  7.3060	  0.0860	   1.201	  72.195
  361	  7.3260	  0.0860	   1.205	  72.395
  362	  7.3480	  0.0860	   1.207	  72.595
  363	  7.3660	  0.0860	   1.211	  72.795
  364	  7.3860	  0.0860	   1.215	  72.995
  365	  7.4060	  0.0860	   1.219	  73.195
  366	  7.4260	  0.0880	   1.221	  73.395
  367	  7.4460	  0.0880	   1.225	  73.595
  368	  7.4660	  0.0880	   1.229	  73.795
  369	  7.4860	  0.0880	   1.231	  73.995
  370	  7.5060	  0.0880	   1.235	  74.195
  371	  7.5240	  0.0880	   1.239	  74.395
  372	  7.5440	  0.0880	   1.242	  74.595
  373	  7.5640	  0.0880	   1.245	  74.795
  374	  7.5840	  0.0880	   1.249	  74.995
  375	  7.6040	  0.0880	   1.252	  75.195
  376	  7.6220	  0.0880	   1.255	  75.395
  377	  7.6420	  0.0880	   1.259	  75.595
  378	  7.6620	  0.0900	   1.262	  75.795
  379	  7.6800	  0.0900	   1.266	  75.995
  380	  7.7000	  0.0900	   1.269	  76.195
  381	  7.7200	  0.0900	   1.272	  76.395
  382	  7.7380	  0.0900	   1.276	  76.595
  383	  7.7580	  0.0900	   1.279	  76.795
  384	  7.7780	  0.0900	   1.283	  76.995
  385	  7.7980	  0.0900	   1.286	  77.195
  386	  7.8160	  0.0900	   1.289	  77.395
  387	  7.8360	  0.0900	   1.293	  77.595
  388	  7.8560	  0.0900	   1.296	  77.795
  389	  7.8740	  0.0920	   1.300	  77.995
  390	  7.8920	  0.0920	   1.303	  78.195
  391	  7.9120	  0.0920	   1.306	  78.395
  392	  7.9300	  0.0920	   1.310	  78.595
  393	  7.9500	  0.0920	   1.312	  78.795
  394	  7.9700	  0.0920	   1.316	  78.995
  395	  7.9860	  0.0920	   1.320	  79.195
  396	  8.0060	  0.0920	   1.324	  79.395
  397	  8.0240	  0.0920	   1.326	  79.595
  398	  8.0420	  0.0920	   1.330	  79.795
  399	  8.0620	  0.0920	   1.334	  79.995
  400	  8.0800	  0.0920	   1.336	  80.195
  401	  8.0980	  0.0940	   1.340	  80.395
  402	  8.1180	  0.0940	   1.344	  80.595
  403	  8.1360	  0.0940	   1.347	  80.795
  404	  8.1540	  0.0940	   1.350	  80.995
  405	  8.1720	  0.0940	   1.354	  81.195
  406	  8.1900	  0.0940	   1.357	  81.395
  407	  8.2080	  0.0940	   1.360	  81.595
  408	  8.2260	  0.0940	   1.364	  81.795
  409	  8.2460	  0.0940	   1.367	  81.995
  410	  8.2660	  0.0940	   1.371	  82.195
  411	  8.2840	  0.0940	   1.374	  82.395
  412	  8.3020	  0.0960	   1.377	  82.595
  413	  8.3220	  0.0960	   1.381	  82.795
  414	  8.3400	  0.0960	   1.384	  82.995
  415	  8.3580	  0.0960	   1.387	  83.195
  416	  8.3760	  0.0960	   1.391	  83.395
  417	  8.3940	  0.0960	   1.395	  83.595
  418	  8.4140	  0.0960	   1.397	  83.795
  419	  8.4320	  0.0960	   1.401	  83.995
  420	  8.4500	  0.0960	   1.405	  84.195
  421	  8.4700	  0.0960	   1.409	  84.395
  422	  8.4900	  0.0980	   1.411	  84.595
  423	  8.5080	  0.0980	   1.415	  84.795
  424	  8.5260	  0.0980	   1.419	  84.995
  425	  8.5440	  0.0980	   1.423	  85.195
  426	  8.5620	  0.0980	   1.425	  85.395
  427	  8.5800	  0.0980	   1.429	  85.595
  428	  8.6000	  0.0980	   1.433	  85.795
  429	  8.6180	  0.0980	   1.435	  85.995
  430	  8.6380	  0.0980	   1.439	  86.195
  431	  8.6560	  0.1000	   1.442	  86.395
  432	  8.6740	  0.0980	   1.446	  86.595
  433	  8.6920	  0.0980	   1.449	  86.795
  434	  8.7120	  0.1000	   1.452	  86.995
  435	  8.7300	  0.1000	   1.456	  87.195
  436	  8.7480	  0.1000	   1.459	  87.395
  437	  8.7660	  0.1000	   1.462	  87.595
  438	  8.7860	  0.0960	   1.466	  87.795
  439	  8.8040	  0.0940	   1.469	  87.995
  440	  8.8240	  0.0940	   1.472	  88.195
  441	  8.8440	  0.0940	   1.476	  88.395
  442	  8.8620	  0.0940	   1.480	  88.595
  443	  8.8820	  0.0940	   1.482	  88.795
  444	  8.9020	  0.0940	   1.486	  88.995
  445	  8.9200	  0.0960	   1.490	  89.195
  446	  8.9400	  0.0960	   1.492	  89.395
  447	  8.9580	  0.0960	   1.496	  89.595
  448	  8.9760	  0.0960	   1.500	  89.795
  449	  8.9960	  0.0960	   1.504	  89.995
  450	  9.2800	  0.0980	   1.515	  90.195
  451	  9.3000	  0.0980	   1.519	  90.395
  452	  9.3160	  0.0980	   1.522	  90.595
  453	  9.3360	  0.0980	   1.525	  90.795
  454	  9.3520	  0.0980	   1.529	  90.995
  455	  9.3760	  0.0980	   1.532	  91.195
  456	  9.3920	  0.0980	   1.535	  91.395
  457	  9.4120	  0.1000	   1.539	  91.595
  458	  9.4280	  0.0980	   1.543	  91.795
  459	  9.4520	  0.1000	   1.546	  91.995
  460	  9.4680	  0.1000	   1.549	  92.195
  461	  9.4880	  0.1000	   1.553	  92.395
  462	  9.5080	  0.1000	   1.556	  92.595
  463	  9.5280	  0.1000	   1.559	  92.795
  464	  9.5480	  0.1000	   1.562	  92.995
  465	  9.5680	  0.1000	   1.566	  93.195
  466	  9.5840	  0.1000	   1.569	  93.395
  467	  9.6040	  0.1000	   1.572	  93.595
  468	  9.6240	  0.1000	   1.576	  93.795
  469	  9.6440	  0.1020	   1.579	  93.995
  470	  9.6640	  0.1020	   1.582	  94.195
  471	  9.6840	  0.1020	   1.586	  94.395
  472	  9.7040	  0.1020	   1.590	  94.595
  473	  9.7240	  0.1020	   1.592	  94.795
  474	  9.7400	  0.1020	   1.596	  94.995
  475	  9.7640	  0.1020	   1.600	  95.195
  476	  9.7800	  0.1020	   1.602	  95.395
  477	  9.8000	  0.1020	   1.606	  95.595
  478	  9.8200	  0.1040	   1.610	  95.795
  479	  9.8400	  0.1040	   1.612	  95.995
  480	  9.8600	  0.1040	   1.616	  96.195
  481	  9.8800	  0.1040	   1.620	  96.395
  482	  9.9000	  0.1040	   1.624	  96.595
  483	  9.9200	  0.1040	   1.626	  96.795
  484	  9.9400	  0.1040	   1.630	  96.995
  485	  9.9600	  0.1040	   1.634	  97.195
  486	  9.9800	  0.1040	   1.636	  97.395
  487	 10.0000	  0.1060	   1.640	  97.595
  488	 10.0200	  0.1060	   1.644	  97.795
  489	 10.0400	  0.1060	   1.647	  97.995
  490	 10.0600	  0.1060	   1.650	  98.195
  491	 10.0800	  0.1060	   1.654	  98.395
  492	 10.1000	  0.1060	   1.657	  98.595
  493	 10.1200	  0.1060	   1.660	  98.795
  494	 10.1400	  0.1080	   1.664	  98.995
  495	 10.1600	  0.1080	   1.668	  99.195
  496	 10.1800	  0.1080	   1.671	  99.395
  497	 10.2000	  0.1080	   1.674	  99.595
  498	 10.2200	  0.1080	   1.678	  99.795
  499	 10.2400	  0.1080	   1.681	  99.995
  500	 10.2600	  0.1080	   1.684	 100.195
  501	 10.2800	  0.1080	   1.688	 100.395
  502	 10.3000	  0.1080	   1.691	 100.595
  503	 10.3200	  0.1080	   1.694	 100.795
  504	 10.3400	  0.1100	   1.697	 100.995
  505	 10.3600	  0.1100	   1.701	 101.195
  506	 10.3800	  0.1100	   1.704	 101.395
  507	 10.4000	  0.1100	   1.707	 101.595
  508	 10.4200	  0.1100	   1.711	 101.795
  509	 10.4400	  0.1100	   1.714	 101.995
  510	 10.4600	  0.1100	   1.717	 102.195
  511	 10.4800	  0.1100	   1.721	 102.395
  512	 10.5040	  0.1100	   1.725	 102.595
  513	 10.5240	  0.1100	   1.727	 102.795
  514	 10.5440	  0.1120	   1.731	 102.995
  515	 10.5640	  0.1120	   1.735	 103.195
  516	 10.5840	  0.1120	   1.737	 103.395
  517	 10.6040	  0.1120	   1.741	 103.595
  518	 10.6240	  0.1120	   1.745	 103.795
  519	 10.6440	  0.1120	   1.749	 103.995
  520	 10.6640	  0.1120	   1.751	 104.195
  521	 10.6840	  0.1140	   1.755	 104.395
  522	 10.7040	  0.1120	   1.759	 104.595
  523	 10.7240	  0.1140	   1.761	 104.795
  524	 10.7440	  0.1140	   1.765	 104.995
  525	 10.7680	  0.1140	   1.769	 105.195
  526	 10.7840	  0.1140	   1.771	 105.395
  527	 10.8080	  0.1140	   1.775	 105.595
  528	 10.8280	  0.1140	   1.779	 105.795
  529	 10.8440	  0.1160	   1.781	 105.995
  530	 10.8680	  0.1160	   1.785	 106.195
  531	 10.8880	  0.1160	   1.789	 106.395
  532	 10.9080	  0.1160	   1.793	 106.595
  533	 10.9280	  0.1160	   1.795	 106.795
  534	 10.9480	  0.1160	   1.799	 106.995
  535	 10.9680	  0.1160	   1.803	 107.195
  536	 10.9920	  0.1160	   1.805	 107.395
  537	 11.0120	  0.1160	   1.809	 107.595
  538	 11.0320	  0.1180	   1.812	 107.795
  539	 11.0520	  0.1180	   1.815	 107.995
  540	 11.0720	  0.1180	   1.819	 108.195
  541	 11.0920	  0.1180	   1.822	 108.395
  542	 11.1160	  0.1180	   1.825	 108.595
  543	 11.1360	  0.1180	   1.829	 108.795
  544	 11.1560	  0.1180	   1.832	 108.995
  545	 11.1760	  0.1180	   1.836	 109.195
  546	 11.1960	  0.1180	   1.839	 109.395
  547	 11.2160	  0.1200	   1.842	 109.595
  548	 11.2360	  0.1200	   1.846	 109.795
  549	 11.2560	  0.1200	   1.849	 109.995
  550	 11.2760	  0.1200	   1.852	 110.195
  551	 11.2960	  0.1200	   1.856	 110.395
  552	 11.3200	  0.1200	   1.859	 110.595
  553	 11.3400	  0.1220	   1.862	 110.795
  554	 11.3600	  0.1200	   1.866	 110.995
  555	 11.3800	  0.1220	   1.869	 111.195
  556	 11.4000	  0.1220	   1.872	 111.395
  557	 11.4200	  0.1220	   1.876	 111.595
  558	 11.4400	  0.1220	   1.879	 111.795
  559	 11.4600	  0.1220	   1.882	 111.995
  560	 11.4800	  0.1220	   1.886	 112.195
  561	 11.5040	  0.1240	   1.889	 112.395
  562	 11.5240	  0.1240	   1.892	 112.595
  563	 11.5440	  0.1240	   1.896	 112.795
  564	 11.5640	  0.1240	   1.899	 112.995
  565	 11.5840	  0.1240	   1.902	 113.195
  566	 11.6040	  0.1240	   1.906	 113.395
  567	 11.6240	  0.1260	   1.910	 113.595
  568	 11.6440	  0.1260	   1.912	 113.795
  569	 11.6680	  0.1260	   1.916	 113.995
  570	 11.6880	  0.1260	   1.920	 114.195
  571	 11.7080	  0.1260	   1.923	 114.395
  572	 11.7280	  0.1260	   1.926	 114.595
  573	 11.7520	  0.1280	   1.930	 114.795
  574	 11.7720	  0.1260	   1.933	 114.995
  575	 11.7920	  0.1260	   1.936	 115.195
  576	 11.8120	  0.1280	   1.940	 115.395
  577	 11.8320	  0.1280	   1.942	 115.595
  578	 11.8520	  0.1280	   1.946	 115.795
  579	 11.8720	  0.1280	   1.950	 115.995
  580	 11.8920	  0.1280	   1.952	 116.195
  581	 11.9160	  0.1280	   1.956	 116.395
  582	 11.9360	  0.1300	   1.960	 116.595
  583	 11.9560	  0.1300	   1.962	 116.795
  584	 11.9760	  0.1300	   1.966	 116.995
  585	 11.9960	  0.1300	   1.969	 117.195
  586	 12.0200	  0.1300	   1.972	 117.395
  587	 12.0400	  0.1300	   1.976	 117.595
  588	 12.0600	  0.1320	   1.979	 117.795
  589	 12.0800	  0.1320	   1.982	 117.995
  590	 12.1000	  0.1320	   1.985	 118.195
  591	 12.1200	  0.1320	   1.989	 118.395
  592	 12.1400	  0.1320	   1.992	 118.595
  593	 12.1600	  0.1320	   1.995	 118.795
  594	 12.1800	  0.1320	   1.999	 118.995
  595	 12.2000	  0.1340	   2.001	 119.195
  596	 12.2240	  0.1340	   2.005	 119.395
  597	 12.2440	  0.1340	   2.009	 119.595
  598	 12.2640	  0.1340	   2.011	 119.795
  599	 12.2840	  0.1340	   2.015	 119.995
  600	 12.3040	  0.1360	   2.017	 120.195
  601	 12.3240	  0.1340	   2.021	 120.395
  602	 12.3440	  0.1360	   2.024	 120.595
  603	 12.3640	  0.1360	   2.027	 120.795
  604	 12.3880	  0.1360	   2.031	 120.995
  605	 12.4080	  0.1360	   2.034	 121.195
  606	 12.4280	  0.1360	   2.037	 121.395
  607	 12.4440	  0.1360	   2.040	 121.595
  608	 12.4680	  0.1380	   2.044	 121.795
  609	 12.4880	  0.1380	   2.046	 121.995
  610	 12.5080	  0.1380	   2.050	 122.195
  611	 12.5280	  0.1380	   2.054	 122.395
  612	 12.5520	  0.1400	   2.056	 122.595
  613	 12.5720	  0.1400	   2.060	 122.795
  614	 12.5920	  0.1400	   2.062	 122.995
  615	 12.6120	  0.1400	   2.066	 123.195
  616	 12.6360	  0.1400	   2.069	 123.395
  617	 12.6560	  0.1400	   2.072	 123.595
  618	 12.6720	  0.1420	   2.076	 123.795
  619	 12.6960	  0.1420	   2.079	 123.995
  620	 12.7160	  0.1420	   2.082	 124.195
  621	 12.7360	  0.1420	   2.086	 124.395
  622	 12.7560	  0.1420	   2.089	 124.595
  623	 12.7760	  0.1440	   2.092	 124.795
  624	 12.7960	  0.1440	   2.095	 124.995
  625	 12.8160	  0.1440	   2.099	 125.195
  626	 12.8360	  0.1440	   2.101	 125.395
  627	 12.8560	  0.1440	   2.105	 125.595
  628	 12.8760	  0.1440	   2.107	 125.795
  629	 12.8960	  0.1460	   2.111	 125.995
  630	 12.9160	  0.1460	   2.115	 126.195
  631	 12.9360	  0.1460	   2.118	 126.395
  632	 12.9560	  0.1460	   2.121	 126.595
  633	 12.9760	  0.1460	   2.124	 126.795
  634	 12.9960	  0.1480	   2.128	 126.995
  635	 13.0160	  0.1480	   2.130	 127.195
  636	 13.0360	  0.1480	   2.134	 127.395
  637	 13.0560	  0.1480	   2.138	 127.595
  638	 13.0760	  0.1480	   2.140	 127.795
  639	 13.0960	  0.1500	   2.144	 127.995
  640	 13.1160	  0.1500	   2.146	 128.195
  641	 13.1360	  0.1500	   2.150	 128.395
  642	 13.1560	  0.1520	   2.152	 128.595
  643	 13.1760	  0.1520	   2.156	 128.795
  644	 13.1960	  0.1520	   2.159	 128.995
  645	 13.2160	  0.1520	   2.162	 129.195
  646	 13.2360	  0.1520	   2.166	 129.395
  647	 13.2560	  0.1520	   2.169	 129.595
  648	 13.2760	  0.1540	   2.172	 129.795
  649	 13.2960	  0.1540	   2.175	 129.995
  650	 13.3160	  0.1540	   2.179	 130.195
  651	 13.3320	  0.1540	   2.182	 130.395
  652	 13.3520	  0.1540	   2.185	 130.595
  653	 13.3720	  0.1560	   2.189	 130.795
  654	 13.3920	  0.1560	   2.191	 130.995
  655	 13.4120	  0.1560	   2.195	 131.195
  656	 13.4320	  0.1560	   2.197	 131.395
  657	 13.4520	  0.1580	   2.201	 131.595
  658	 13.4720	  0.1580	   2.204	 131.795
  659	 13.4920	  0.1580	   2.207	 131.995
  660	 13.5120	  0.1600	   2.211	 132.195
  661	 13.5320	  0.1600	   2.214	 132.395
  662	 13.5480	  0.1600	   2.217	 132.595
  663	 13.5680	  0.1600	   2.220	 132.795
  664	 13.5880	  0.1600	   2.224	 132.995
  665	 13.6080	  0.1620	   2.226	 133.195
  666	 13.6280	  0.1620	   2.230	 133.395
  667	 13.6480	  0.1620	   2.232	 133.595
  668	 13.6680	  0.1620	   2.236	 133.795
  669	 13.6840	  0.1640	   2.239	 133.995
  670	 13.7040	  0.1620	   2.243	 134.195
  671	 13.7240	  0.1640	   2.246	 134.395
  672	 13.7440	  0.1640	   2.249	 134.595
  673	 13.7640	  0.1660	   2.253	 134.795
  674	 13.7800	  0.1660	   2.255	 134.995
  675	 13.8000	  0.1660	   2.259	 135.195
  676	 13.8200	  0.1660	   2.261	 135.395
  677	 13.8400	  0.1660	   2.265	 135.595
  678	 13.8560	  0.1680	   2.269	 135.795
  679	 13.8760	  0.1680	   2.271	 135.995
  680	 13.8960	  0.1700	   2.275	 136.195
  681	 13.9160	  0.1700	   2.277	 136.395
  682	 13.9320	  0.1700	   2.281	 136.595
  683	 13.9560	  0.1700	   2.284	 136.795
  684	 13.9760	  0.1720	   2.287	 136.995
  685	 13.9920	  0.1720	   2.291	 137.195
  686	 14.0080	  0.1720	   2.294	 137.395
  687	 14.0320	  0.1720	   2.297	 137.595
  688	 14.0520	  0.1740	   2.300	 137.795
  689	 14.0680	  0.1740	   2.304	 137.995
  690	 14.0840	  0.1740	   2.306	 138.195
  691	 14.1040	  0.1760	   2.310	 138.395
  692	 14.1240	  0.1760	   2.314	 138.595
  693	 14.1400	  0.1760	   2.316	 138.795
  694	 14.1600	  0.1760	   2.320	 138.995
  695	 14.1760	  0.1780	   2.322	 139.195
  696	 14.1960	  0.1780	   2.326	 139.395
  697	 14.2160	  0.1780	   2.329	 139.595
  698	 14.2360	  0.1800	   2.332	 139.795
  699	 14.2520	  0.1800	   2.336	 139.995
  700	 14.2720	  0.1800	   2.339	 140.195
  701	 14.2880	  0.1820	   2.342	 140.395
  702	 14.3080	  0.1820	   2.345	 140.595
  703	 14.3240	  0.1820	   2.349	 140.795
  704	 14.3440	  0.1840	   2.351	 140.995
  705	 14.3600	  0.1840	   2.355	 141.195
  706	 14.3800	  0.1840	   2.359	 141.395
  707	 14.3960	  0.1860	   2.361	 141.595
  708	 14.4160	  0.1860	   2.365	 141.795
  709	 14.4320	  0.1860	   2.367	 141.995
  710	 14.4520	  0.1880	   2.371	 142.195
  711	 14.4680	  0.1880	   2.374	 142.395
  712	 14.4840	  0.1880	   2.378	 142.595
  713	 14.5040	  0.1900	   2.380	 142.795
  714	 14.5240	  0.1900	   2.384	 142.995
  715	 14.5400	  0.1900	   2.386	 143.195
  716	 14.5560	  0.1920	   2.390	 143.395
  717	 14.5760	  0.1920	   2.392	 143.595
  718	 14.5920	  0.1920	   2.396	 143.795
  719	 14.6120	  0.1940	   2.400	 143.995
  720	 14.6280	  0.1940	   2.402	 144.195
  721	 14.6440	  0.1960	   2.406	 144.395
  722	 14.6640	  0.1960	   2.409	 144.595
  723	 14.6800	  0.1960	   2.412	 144.795
  724	 14.6960	  0.1980	   2.415	 144.995
  725	 14.7160	  0.1980	   2.419	 145.195
  726	 14.7320	  0.2000	   2.421	 145.395
  727	 14.7480	  0.2000	   2.425	 145.595
  728	 14.7680	  0.2020	   2.429	 145.795
  729	 14.7840	  0.2020	   2.431	 145.995
  730	 14.8000	  0.2020	   2.435	 146.195
  731	 14.8200	  0.2040	   2.438	 146.395
  732	 14.8360	  0.2040	   2.441	 146.595
  733	 14.8560	  0.2060	   2.444	 146.795
  734	 14.8720	  0.2060	   2.447	 146.995
  735	 14.8880	  0.2060	   2.450	 147.195
  736	 14.9040	  0.2080	   2.454	 147.395
  737	 14.9200	  0.2080	   2.457	 147.595
  738	 14.9360	  0.2100	   2.460	 147.795
  739	 14.9560	  0.2100	   2.464	 147.995
  740	 14.9720	  0.2120	   2.466	 148.195
  741	 14.9880	  0.2120	   2.470	 148.395
  742	 15.0040	  0.2140	   2.472	 148.595
  743	 15.0200	  0.2140	   2.476	 148.795
  744	 15.0360	  0.2160	   2.479	 148.995
  745	 15.0560	  0.2160	   2.482	 149.195
  746	 15.0720	  0.2160	   2.486	 149.395
  747	 15.0840	  0.2180	   2.489	 149.595
  748	 15.1000	  0.2200	   2.492	 149.795
  749	 15.1160	  0.2200	   2.495	 149.995
  750	 15.1320	  0.2220	   2.499	 150.195
  751	 15.1480	  0.2220	   2.501	 150.395
  752	 15.1640	  0.2240	   2.505	 150.595
  753	 15.1800	  0.2240	   2.509	 150.795
  754	 15.1960	  0.2260	   2.511	 150.995
  755	 15.2120	  0.2260	   2.515	 151.195
  756	 15.2240	  0.2280	   2.517	 151.395
  757	 15.2400	  0.2280	   2.521	 151.595
  758	 15.2560	  0.2280	   2.524	 151.795
  759	 15.2720	  0.2300	   2.527	 151.995
  760	 15.2880	  0.2320	   2.530	 152.195
  761	 15.3040	  0.2320	   2.534	 152.395
  762	 15.3200	  0.2340	   2.536	 152.595
  763	 15.3320	  0.2340	   2.540	 152.795
  764	 15.3520	  0.2360	   2.543	 152.995
  765	 15.3640	  0.2380	   2.546	 153.195
  766	 15.3800	  0.2380	   2.549	 153.395
  767	 15.3960	  0.2400	   2.553	 153.595
  768	 15.4080	  0.2400	   2.556	 153.795
  769	 15.4240	  0.2420	   2.559	 153.995
  770	 15.4400	  0.2420	   2.562	 154.195
  771	 15.4520	  0.2440	   2.565	 154.395
  772	 15.4720	  0.2460	   2.569	 154.595
  773	 15.4840	  0.2460	   2.571	 154.795
  774	 15.5000	  0.2480	   2.575	 154.995
  775	 15.5160	  0.2480	   2.577	 155.195
  776	 15.5280	  0.2500	   2.581	 155.395
  777	 15.5400	  0.2500	   2.584	 155.595
  778	 15.5560	  0.2520	   2.587	 155.795
  779	 15.5680	  0.2540	   2.591	 155.995
  780	 15.5840	  0.2540	   2.594	 156.195
  781	 15.6000	  0.2560	   2.597	 156.395
  782	 15.6120	  0.2580	   2.600	 156.595
  783	 15.6280	  0.2580	   2.604	 156.795
  784	 15.6400	  0.2580	   2.606	 156.995
  785	 15.6560	  0.2600	   2.610	 157.195
  786	 15.6680	  0.2620	   2.612	 157.395
  787	 15.6840	  0.2640	   2.616	 157.595
  788	 15.6960	  0.2640	   2.619	 157.795
  789	 15.7080	  0.2660	   2.622	 157.995
  790	 15.7240	  0.2580	   2.626	 158.195
  791	 15.7360	  0.2600	   2.629	 158.395
  792	 15.7480	  0.2620	   2.632	 158.595
  793	 15.7640	  0.2640	   2.635	 158.795
  794	 15.7760	  0.2660	   2.639	 158.995
  795	 15.7880	  0.2660	   2.641	 159.195
  796	 15.8040	  0.2680	   2.645	 159.395
  797	 15.8200	  0.2700	   2.648	 159.595
  798	 15.8320	  0.2700	   2.651	 159.795
  799	 15.8400	  0.2720	   2.654	 159.995
  800	 15.8560	  0.2740	   2.658	 160.195
  801	 15.8720	  0.2740	   2.660	 160.395
  802	 15.8840	  0.2760	   2.664	 160.595
  803	 15.8960	  0.2780	   2.666	 160.795
  804	 15.9080	  0.2800	   2.670	 160.995
  805	 15.9240	  0.2820	   2.674	 161.195
  806	 15.9360	  0.2820	   2.676	 161.395
  807	 15.9480	  0.2840	   2.680	 161.595
  808	 15.9600	  0.2860	   2.682	 161.795
  809	 15.9720	  0.2860	   2.686	 161.995
  810	 15.9880	  0.2880	   2.689	 162.195
  811	 16.0000	  0.2900	   2.692	 162.395
  812	 16.0120	  0.2920	   2.695	 162.595
  813	 16.0240	  0.2920	   2.699	 162.795
  814	 16.0400	  0.2940	   2.701	 162.995
  815	 16.0480	  0.2960	   2.705	 163.195
  816	 16.0600	  0.2980	   2.709	 163.395
  817	 16.0720	  0.3000	   2.711	 163.595
  818	 16.0800	  0.3000	   2.715	 163.795
  819	 16.0920	  0.3020	   2.717	 163.995
  820	 16.1080	  0.3040	   2.721	 164.195
  821	 16.1200	  0.3060	   2.724	 164.395
  822	 16.1320	  0.3060	   2.727	 164.595
  823	 16.1440	  0.3080	   2.730	 164.795
  824	 16.1560	  0.3100	   2.734	 164.995
  825	 16.1640	  0.3120	   2.736	 165.195
  826	 16.1760	  0.3140	   2.740	 165.395
  827	 16.1880	  0.3140	   2.742	 165.595
  828	 16.2000	  0.3160	   2.746	 165.795
  829	 16.2120	  0.3180	   2.749	 165.995
  830	 16.2240	  0.3200	   2.753	 166.195
  831	 16.2320	  0.3220	   2.756	 166.395
  832	 16.2480	  0.3220	   2.759	 166.595
  833	 16.2560	  0.3240	   2.763	 166.795
  834	 16.2680	  0.3260	   2.765	 166.995
  835	 16.2800	  0.3280	   2.769	 167.195
  836	 16.2920	  0.3300	   2.771	 167.395
  837	 16.3040	  0.3320	   2.775	 167.595
  838	 16.3160	  0.3320	   2.777	 167.795
  839	 16.3240	  0.3340	   2.781	 167.995
  840	 16.3360	  0.3360	   2.784	 168.195
  841	 16.3440	  0.3380	   2.787	 168.395
  842	 16.3560	  0.3400	   2.790	 168.595
  843	 16.3640	  0.3420	   2.794	 168.795
  844	 16.3760	  0.3440	   2.797	 168.995
  845	 16.3880	  0.3440	   2.800	 169.195
  846	 16.3960	  0.3460	   2.804	 169.395
  847	 16.4080	  0.3480	   2.806	 169.595
  848	 16.4200	  0.3500	   2.810	 169.795
  849	 16.4280	  0.3520	   2.812	 169.995
  850	 16.4400	  0.3540	   2.816	 170.195
  851	 16.4520	  0.3560	   2.819	 170.395
  852	 16.4600	  0.3560	   2.822	 170.595
  853	 16.4720	  0.3580	   2.825	 170.795
  854	 16.4800	  0.3600	   2.829	 170.995
  855	 16.4920	  0.3620	   2.831	 171.195
  856	 16.5000	  0.3640	   2.835	 171.395
  857	 16.5120	  0.3660	   2.839	 171.595
  858	 16.5200	  0.3680	   2.841	 171.795
  859	 16.5320	  0.3680	   2.845	 171.995
  860	 16.5400	  0.3720	   2.847	 172.195
  861	 16.5520	  0.3740	   2.851	 172.395
  862	 16.5600	  0.3760	   2.854	 172.595
  863	 16.5680	  0.3760	   2.857	 172.795
  864	 16.5760	  0.3780	   2.860	 172.995
  865	 16.5880	  0.3800	   2.864	 173.195
  866	 16.5960	  0.3820	   2.866	 173.395
  867	 16.6080	  0.3840	   2.870	 173.595
  868	 16.6160	  0.3860	   2.872	 173.795
  869	 16.6240	  0.3880	   2.876	 173.995
  870	 16.6320	  0.3900	   2.879	 174.195
  871	 16.6440	  0.3920	   2.882	 174.395
  872	 16.6480	  0.3940	   2.886	 174.595
  873	 16.6600	  0.3960	   2.889	 174.795
  874	 16.6680	  0.3980	   2.892	 174.995
  875	 16.6760	  0.4000	   2.895	 175.195
  876	 16.6880	  0.4020	   2.899	 175.395
  877	 16.6960	  0.4040	   2.901	 175.595
  878	 16.7080	  0.4060	   2.905	 175.795
  879	 16.7120	  0.4080	   2.908	 175.995
  880	 16.7200	  0.4100	   2.911	 176.195
  881	 16.7320	  0.4120	   2.914	 176.395
  882	 16.7400	  0.4140	   2.918	 176.595
  883	 16.7440	  0.4160	   2.920	 176.795
  884	 16.7560	  0.4180	   2.924	 176.995
  885	 16.7640	  0.4200	   2.928	 177.195
  886	 16.7680	  0.4200	   2.930	 177.395
  887	 16.7800	  0.4240	   2.934	 177.595
  888	 16.7880	  0.4260	   2.936	 177.795
  889	 16.7960	  0.4260	   2.940	 177.995
  890	 16.8040	  0.4300	   2.942	 178.195
  891	 16.8120	  0.4320	   2.946	 178.395
  892	 16.8200	  0.4340	   2.949	 178.595
  893	 16.8280	  0.4340	   2.952	 178.795
  894	 16.8360	  0.4380	   2.955	 178.995
  895	 16.8400	  0.4400	   2.959	 179.195
  896	 16.8520	  0.4420	   2.962	 179.395
  897	 16.8600	  0.4440	   2.965	 179.595
  898	 16.8640	  0.4460	   2.969	 179.795
  899	 16.8760	  0.4480	   2.971	 179.995
  900	 16.8800	  0.4500	   2.975	 180.195
  901	 16.8880	  0.4520	   2.977	 180.395
  902	 16.8920	  0.4540	   2.981	 180.595
  903	 16.9000	  0.4560	   2.984	 180.795
  904	 16.9080	  0.4580	   2.987	 180.995
  905	 16.9160	  0.4600	   2.990	 181.195
  906	 16.9240	  0.4620	   2.994	 181.395
  907	 16.9320	  0.4640	   2.996	 181.595
  908	 16.9400	  0.4660	   3.000	 181.795
  909	 16.9440	  0.4680	   3.004	 181.995
  910	 16.9520	  0.4700	   3.006	 182.195
  911	 16.9560	  0.4740	   3.010	 182.395
  912	 16.9640	  0.4760	   3.013	 182.595
  913	 16.9720	  0.4780	   3.016	 182.795
  914	 16.9800	  0.4800	   3.019	 182.995
  915	 16.9880	  0.4820	   3.023	 183.195
  916	 16.9920	  0.4840	   3.026	 183.395
  917	 17.0000	  0.4860	   3.029	 183.595
  918	 17.0040	  0.4880	   3.033	 183.795
  919	 17.0120	  0.4900	   3.036	 183.995
  920	 17.0160	  0.4920	   3.039	 184.195
  921	 17.0240	  0.4960	   3.043	 184.395
  922	 17.0280	  0.4980	   3.045	 184.595
  923	 17.0360	  0.5000	   3.049	 184.795
  924	 17.0440	  0.5020	   3.051	 184.995
  925	 17.0480	  0.5040	   3.055	 185.195
  926	 17.0520	  0.5060	   3.059	 185.395
  927	 17.0600	  0.5080	   3.061	 185.595
  928	 17.0680	  0.5100	   3.065	 185.795
  929	 17.0720	  0.5120	   3.067	 185.995
  930	 17.0800	  0.5160	   3.071	 186.195
  931	 17.0840	  0.5180	   3.075	 186.395
  932	 17.0920	  0.5200	   3.077	 186.595
  933	 17.0960	  0.5220	   3.081	 186.795
  934	 17.1000	  0.5240	   3.084	 186.995
  935	 17.1080	  0.5260	   3.087	 187.195
  936	 17.1120	  0.5300	   3.091	 187.395
  937	 17.1160	  0.5320	   3.094	 187.595
  938	 17.1240	  0.5340	   3.097	 187.795
  939	 17.1280	  0.5360	   3.101	 187.995
  940	 17.1360	  0.5380	   3.104	 188.195
  941	 17.1400	  0.5420	   3.107	 188.395
  942	 17.1440	  0.5440	   3.111	 188.595
  943	 17.1480	  0.5460	   3.114	 188.795
  944	 17.1560	  0.5480	   3.117	 188.995
  945	 17.1600	  0.5500	   3.120	 189.195
  946	 17.1640	  0.5520	   3.124	 189.395
  947	 17.1680	  0.5560	   3.127	 189.595
  948	 17.1720	  0.5580	   3.130	 189.795
  949	 17.1800	  0.5600	   3.134	 189.995
  950	 17.1840	  0.5620	   3.138	 190.195
  951	 17.1880	  0.5660	   3.140	 190.395
  952	 17.1920	  0.5680	   3.144	 190.595
  953	 17.2000	  0.5700	   3.148	 190.795
  954	 17.2040	  0.5720	   3.150	 190.995
  955	 17.2080	  0.5760	   3.154	 191.195
  956	 17.2120	  0.5780	   3.156	 191.395
  957	 17.2160	  0.5800	   3.160	 191.595
  958	 17.2200	  0.5820	   3.164	 191.795
  959	 17.2280	  0.5840	   3.166	 191.995
  960	 17.2280	  0.5880	   3.170	 192.195
  961	 17.2360	  0.5900	   3.172	 192.395
  962	 17.2400	  0.5920	   3.176	 192.595
  963	 17.2440	  0.5940	   3.180	 192.795
  964	 17.2480	  0.5960	   3.182	 192.995
  965	 17.2520	  0.6000	   3.186	 193.195
  966	 17.2520	  0.6020	   3.189	 193.395
  967	 17.2600	  0.6040	   3.192	 193.595
  968	 17.2640	  0.6080	   3.196	 193.795
  969	 17.2680	  0.6100	   3.199	 193.995
  970	 17.2720	  0.6120	   3.202	 194.195
  971	 17.2760	  0.6140	   3.206	 194.395
  972	 17.2800	  0.6180	   3.209	 194.595
  973	 17.2840	  0.6200	   3.212	 194.795
  974	 17.2880	  0.6220	   3.216	 194.995
  975	 17.2920	  0.6240	   3.219	 195.195
  976	 17.2960	  0.6280	   3.222	 195.395
  977	 17.3000	  0.6300	   3.225	 195.595
  978	 17.3040	  0.6320	   3.229	 195.795
  979	 17.3080	  0.6360	   3.232	 195.995
  980	 17.3120	  0.6380	   3.235	 196.195
  981	 17.3160	  0.6400	   3.239	 196.395
  982	 17.3160	  0.6420	   3.241	 196.595
  983	 17.3200	  0.6460	   3.245	 196.795
  984	 17.3240	  0.6480	   3.249	 196.995
  985	 17.3280	  0.6500	   3.251	 197.195
  986	 17.3320	  0.6540	   3.255	 197.395
  987	 17.3360	  0.6560	   3.257	 197.595
  988	 17.3400	  0.6580	   3.261	 197.795
  989	 17.3440	  0.6620	   3.265	 197.995
  990	 17.3480	  0.6640	   3.267	 198.195
  991	 17.3480	  0.6660	   3.271	 198.395
  992	 17.3520	  0.6700	   3.275	 198.595
  993	 17.3560	  0.6720	   3.277	 198.795
  994	 17.3600	  0.6740	   3.281	 198.995
  995	 17.3640	  0.6780	   3.284	 199.195
  996	 17.3640	  0.6800	   3.287	 199.395
  997	 17.3680	  0.6820	   3.291	 199.595
  998	 17.3720	  0.6860	   3.294	 199.795
  999	 17.3760	  0.6880	   3.297	 199.995
 1000	 17.3800	  0.6900	   3.301	 200.195
 1001	 17.3840	  0.6940	   3.304	 200.395
 1002	 17.3840	  0.6960	   3.307	 200.595
 1003	 17.3880	  0.6980	   3.310	 200.795
 1004	 17.3920	  0.7020	   3.314	 200.995
 1005	 17.3960	  0.7040	   3.317	 201.195
 1006	 17.3960	  0.7060	   3.320	 201.395
 1007	 17.4000	  0.7100	   3.324	 201.595
 1008	 17.4000	  0.7120	   3.326	 201.795
 1009	 17.4040	  0.7140	   3.330	 201.995
 1010	 17.4080	  0.7180	   3.334	 202.195
 1011	 17.4080	  0.7200	   3.336	 202.395
 1012	 17.4120	  0.7220	   3.340	 202.595
 1013	 17.4120	  0.7260	   3.344	 202.795
 1014	 17.4200	  0.7280	   3.346	 202.995
 1015	 17.4200	  0.7320	   3.350	 203.195
 1016	 17.4240	  0.7340	   3.352	 203.395
 1017	 17.4280	  0.7360	   3.356	 203.595
 1018	 17.4280	  0.7400	   3.360	 203.795
 1019	 17.4320	  0.7420	   3.362	 203.995
 1020	 17.4320	  0.7440	   3.366	 204.195
 1021	 17.4360	  0.7480	   3.369	 204.395
 1022	 17.4400	  0.7500	   3.372	 204.595
 1023	 17.4440	  0.7540	   3.376	 204.795
 1024	 17.4440	  0.7560	   3.379	 204.995
 1025	 17.4480	  0.7580	   3.382	 205.195
 1026	 17.4480	  0.7620	   3.386	 205.395
 1027	 17.4520	  0.7640	   3.389	 205.595
 1028	 17.4520	  0.7680	   3.392	 205.795
 1029	 17.4560	  0.7700	   3.395	 205.995
 1030	 17.4600	  0.7720	   3.399	 206.195
 1031	 17.4600	  0.7760	   3.402	 206.395
 1032	 17.4640	  0.7780	   3.405	 206.595
 1033	 17.4680	  0.7820	   3.409	 206.795
 1034	 17.4680	  0.7840	   3.412	 206.995
 1035	 17.4720	  0.7860	   3.415	 207.195
 1036	 17.4760	  0.7900	   3.419	 207.395
 1037	 17.4760	  0.7920	   3.422	 207.595
 1038	 17.4760	  0.7960	   3.425	 207.795
 1039	 17.4800	  0.7980	   3.429	 207.995
 1040	 17.4800	  0.8020	   3.432	 208.195
 1041	 17.4840	  0.8040	   3.435	 208.395
 1042	 17.4880	  0.8080	   3.439	 208.595
 1043	 17.4880	  0.8100	   3.442	 208.795
 1044	 17.4920	  0.8120	   3.445	 208.995
 1045	 17.4960	  0.8160	   3.449	 209.195
 1046	 17.4960	  0.8180	   3.452	 209.395
 1047	 17.4960	  0.8220	   3.455	 209.595
 1048	 17.5000	  0.8240	   3.459	 209.795
 1049	 17.5000	  0.8260	   3.461	 209.995
 1050	 17.5040	  0.8300	   3.465	 210.195
 1051	 17.5080	  0.8320	   3.469	 210.395
 1052	 17.5080	  0.8360	   3.471	 210.595
 1053	 17.5120	  0.8380	   3.475	 210.795
 1054	 17.5120	  0.8420	   3.479	 210.995
 1055	 17.5120	  0.8440	   3.481	 211.195
 1056	 17.5160	  0.8460	   3.485	 211.395
 1057	 17.5200	  0.8500	   3.489	 211.595
 1058	 17.5200	  0.8520	   3.491	 211.795
 1059	 17.5200	  0.8560	   3.495	 211.995
 1060	 17.5240	  0.8580	   3.499	 212.195
 1061	 17.5240	  0.8620	   3.501	 212.395
 1062	 17.5280	  0.8640	   3.505	 212.595
 1063	 17.5280	  0.8680	   3.509	 212.795
 1064	 17.5320	  0.8700	   3.511	 212.995
 1065	 17.5320	  0.8740	   3.515	 213.195
 1066	 17.5360	  0.8760	   3.519	 213.395
 1067	 17.5360	  0.8780	   3.521	 213.595
 1068	 17.5360	  0.8820	   3.525	 213.795
 1069	 17.5360	  0.8840	   3.529	 213.995
 1070	 17.5400	  0.8880	   3.531	 214.195
 1071	 17.5400	  0.8900	   3.535	 214.395
 1072	 17.5440	  0.8940	   3.537	 214.595
 1073	 17.5440	  0.8960	   3.541	 214.795
 1074	 17.5480	  0.9000	   3.545	 214.995
 1075	 17.5520	  0.9020	   3.549	 215.195
 1076	 17.5520	  0.9060	   3.551	 215.395
 1077	 17.5520	  0.9080	   3.555	 215.595
 1078	 17.5520	  0.9100	   3.557	 215.795
 1079	 17.5560	  0.9140	   3.561	 215.995
 1080	 17.5560	  0.9160	   3.565	 216.195
 1081	 17.5560	  0.9200	   3.567	 216.395
 1082	 17.5600	  0.9220	   3.571	 216.595
 1083	 17.5600	  0.9260	   3.575	 216.795
 1084	 17.5640	  0.9280	   3.577	 216.995
 1085	 17.5640	  0.9320	   3.581	 217.195
 1086	 17.5680	  0.9340	   3.585	 217.395
 1087	 17.5680	  0.9380	   3.587	 217.595
 1088	 17.5680	  0.9400	   3.591	 217.795
 1089	 17.5680	  0.9420	   3.594	 217.995
 1090	 17.5720	  0.9460	   3.597	 218.195
 1091	 17.5760	  0.9500	   3.601	 218.395
 1092	 17.5760	  0.9520	   3.604	 218.595
 1093	 17.5760	  0.9560	   3.607	 218.795
 1094	 17.5800	  0.9580	   3.611	 218.995
 1095	 17.5800	  0.9620	   3.614	 219.195
 1096	 17.5800	  0.9640	   3.617	 219.395
 1097	 17.5840	  0.9660	   3.621	 219.595
 1098	 17.5840	  0.9700	   3.624	 219.795
 1099	 17.5840	  0.9720	   3.627	 219.995
 1100	 17.5880	  0.9760	   3.631	 220.195
 1101	 17.5880	  0.9780	   3.634	 220.395
 1102	 17.5880	  0.9820	   3.637	 220.595
 1103	 17.5920	  0.9840	   3.641	 220.795
 1104	 17.5920	  0.9880	   3.644	 220.995
 1105	 17.5960	  0.9900	   3.647	 221.195
 1106	 17.5960	  0.9940	   3.650	 221.395
 1107	 17.5960	  0.9980	   3.654	 221.595
 1108	 17.5960	  1.0000	   3.658	 221.795
 1109	 17.5960	  1.0020	   3.660	 221.995
 1110	 17.5960	  1.0060	   3.664	 222.195
 1111	 17.6000	  1.0080	   3.668	 222.395
 1112	 17.6000	  1.0120	   3.670	 222.595
 1113	 17.6040	  1.0140	   3.674	 222.795
 1114	 17.6040	  1.0180	   3.678	 222.995
 1115	 17.6040	  1.0200	   3.680	 223.195
 1116	 17.6080	  1.0240	   3.684	 223.395
 1117	 17.6080	  1.0260	   3.688	 223.595
 1118	 17.6080	  1.0300	   3.690	 223.795
 1119	 17.6120	  1.0320	   3.694	 223.995
 1120	 17.6120	  1.0360	   3.696	 224.195
 1121	 17.6120	  1.0380	   3.700	 224.395
 1122	 17.6120	  1.0420	   3.704	 224.595
 1123	 17.6120	  1.0440	   3.706	 224.795
 1124	 17.6160	  1.0480	   3.710	 224.995
 1125	 17.6160	  1.0500	   3.714	 225.195
 1126	 17.6160	  1.0540	   3.716	 225.395
 1127	 17.6160	  1.0560	   3.720	 225.595
 1128	 17.6160	  1.0600	   3.724	 225.795
 1129	 17.6200	  1.0620	   3.726	 225.995
 1130	 17.6200	  1.0660	   3.730	 226.195
 1131	 17.6200	  1.0680	   3.732	 226.395
 1132	 17.6200	  1.0720	   3.736	 226.595
 1133	 17.6200	  1.0740	   3.740	 226.795
 1134	 17.6240	  1.0780	   3.742	 226.995
 1135	 17.6240	  1.0800	   3.746	 227.195
 1136	 17.6240	  1.0840	   3.750	 227.395
 1137	 17.6240	  1.0860	   3.752	 227.595
 1138	 17.6280	  1.0900	   3.756	 227.795
 1139	 17.6280	  1.0920	   3.759	 227.995
 1140	 17.6280	  1.0960	   3.762	 228.195
 1141	 17.6280	  1.0980	   3.766	 228.395
 1142	 17.6280	  1.1020	   3.769	 228.595
 1143	 17.6320	  1.1060	   3.771	 228.795
 1144	 17.6320	  1.1080	   3.775	 228.995
 1145	 17.6320	  1.1120	   3.777	 229.195
 1146	 17.6320	  1.1140	   3.781	 229.395
 1147	 17.6360	  1.1180	   3.785	 229.595
 1148	 17.6360	  1.1200	   3.787	 229.795
 1149	 17.6360	  1.1240	   3.791	 229.995
 1150	 17.6400	  1.1260	   3.795	 230.195
 1151	 17.6400	  1.1300	   3.797	 230.395
 1152	 17.6360	  1.1320	   3.801	 230.595
 1153	 17.6400	  1.1360	   3.804	 230.795
 1154	 17.6400	  1.1380	   3.807	 230.995
 1155	 17.6400	  1.1420	   3.811	 231.195
 1156	 17.6400	  1.1440	   3.814	 231.395
 1157	 17.6440	  1.1480	   3.817	 231.595
 1158	 17.6440	  1.1500	   3.821	 231.795
 1159	 17.6440	  1.1540	   3.824	 231.995
 1160	 17.6440	  1.1560	   3.827	 232.195
 1161	 17.6440	  1.1600	   3.830	 232.395
 1162	 17.6440	  1.1640	   3.834	 232.595
 1163	 17.6480	  1.1660	   3.837	 232.795
 1164	 17.6480	  1.1700	   3.840	 232.995
 1165	 17.6480	  1.1720	   3.844	 233.195
 1166	 17.6480	  1.1760	   3.847	 233.395
 1167	 17.6520	  1.1780	   3.850	 233.595
 1168	 17.6520	  1.1820	   3.854	 233.795
 1169	 17.6520	  1.1840	   3.856	 233.995
 1170	 17.6520	  1.1880	   3.860	 234.195
 1171	 17.6520	  1.1900	   3.864	 234.395
 1172	 17.6520	  1.1940	   3.866	 234.595
 1173	 17.6520	  1.1960	   3.870	 234.795
 1174	 17.6520	  1.2000	   3.872	 234.995
 1175	 17.6560	  1.2040	   3.876	 235.195
 1176	 17.6560	  1.2060	   3.880	 235.395
 1177	 17.6560	  1.2100	   3.882	 235.595
 1178	 17.6560	  1.2120	   3.886	 235.795
 1179	 17.6560	  1.2160	   3.890	 235.995
 1180	 17.6600	  1.2180	   3.892	 236.195
 1181	 17.6600	  1.2220	   3.896	 236.395
 1182	 17.6600	  1.2240	   3.899	 236.595
 1183	 17.6600	  1.2280	   3.902	 236.795
 1184	 17.6560	  1.2320	   3.906	 236.995
 1185	 17.6600	  1.2340	   3.909	 237.195
 1186	 17.6600	  1.2380	   3.912	 237.395
 1187	 17.6640	  1.2400	   3.916	 237.595
 1188	 17.6640	  1.2440	   3.919	 237.795
 1189	 17.6600	  1.2460	   3.922	 237.995
 1190	 17.6640	  1.2500	   3.926	 238.195
 1191	 17.6640	  1.2520	   3.929	 238.395
 1192	 17.6640	  1.2560	   3.932	 238.595
 1193	 17.6640	  1.2600	   3.936	 238.795
 1194	 17.6640	  1.2620	   3.939	 238.995
 1195	 17.6640	  1.2640	   3.942	 239.195
 1196	 17.6640	  1.2680	   3.945	 239.395
 1197	 17.6640	  1.2720	   3.949	 239.595
 1198	 17.6640	  1.2760	   3.952	 239.795
 1199	 17.6680	  1.2780	   3.955	 239.995
 1200	 17.6680	  1.2800	   3.959	 240.195
 1201	 17.6680	  1.2840	   3.961	 240.395
 1202	 17.6680	  1.2880	   3.965	 240.595
 1203	 17.6640	  1.2900	   3.969	 240.795
 1204	 17.6680	  1.2940	   3.971	 240.995
 1205	 17.6680	  1.2960	   3.975	 241.195
 1206	 17.6680	  1.3000	   3.979	 241.395
 1207	 17.6680	  1.3020	   3.981	 241.595
 1208	 17.6720	  1.3060	   3.985	 241.795
 1209	 17.6680	  1.3100	   3.987	 241.995
 1210	 17.6680	  1.3120	   3.991	 242.195
 1211	 17.6680	  1.3160	   3.995	 242.395
 1212	 17.6680	  1.3180	   3.997	 242.595
 1213	 17.6680	  1.3220	   4.001	 242.795
 1214	 17.6680	  1.3240	   4.005	 242.995
 1215	 17.6680	  1.3280	   4.007	 243.195
 1216	 17.6720	  1.3300	   4.011	 243.395
 1217	 17.6720	  1.3340	   4.015	 243.595
 1218	 17.6720	  1.3380	   4.017	 243.795
 1219	 17.6720	  1.3400	   4.021	 243.995
 1220	 17.6720	  1.3440	   4.025	 244.195
 1221	 17.6680	  1.3460	   4.027	 244.395
 1222	 17.6720	  1.3500	   4.031	 244.595
 1223	 17.6720	  1.3520	   4.034	 244.795
 1224	 17.6720	  1.3560	   4.037	 244.995
 1225	 17.6720	  1.3600	   4.041	 245.195
 1226	 17.6720	  1.3620	   4.044	 245.395
 1227	 17.6720	  1.3660	   4.048	 245.595
 1228	 17.6720	  1.3680	   4.051	 245.795
 1229	 17.6720	  1.3720	   4.054	 245.995
 1230	 17.6720	  1.3760	   4.057	 246.195
 1231	 17.6720	  1.3780	   4.061	 246.395
 1232	 17.6720	  1.3820	   4.064	 246.595
 1233	 17.6720	  1.3860	   4.068	 246.795
 1234	 17.6720	  1.3880	   4.070	 246.995
 1235	 17.6720	  1.3900	   4.074	 247.195
 1236	 17.6680	  1.3860	   4.077	 247.395
 1237	 17.6680	  1.3900	   4.080	 247.595
 1238	 17.6720	  1.3940	   4.084	 247.795
 1239	 17.6720	  1.3960	   4.086	 247.995
 1240	 17.6720	  1.4000	   4.090	 248.195
 1241	 17.6720	  1.4040	   4.094	 248.395
 1242	 17.6680	  1.4080	   4.096	 248.595
 1243	 17.6680	  1.4100	   4.100	 248.795
 1244	 17.6680	  1.4140	   4.102	 248.995
 1245	 17.6720	  1.4180	   4.106	 249.195
 1246	 17.6720	  1.4200	   4.110	 249.395
 1247	 17.6720	  1.4240	   4.112	 249.595
 1248	 17.6720	  1.4260	   4.116	 249.795
 1249	 17.6720	  1.4300	   4.120	 249.995
 1250	 17.6720	  1.4340	   4.122	 250.195
 1251	 17.6720	  1.4360	   4.126	 250.395
 1252	 17.6680	  1.4400	   4.130	 250.595
 1253	 17.6720	  1.4440	   4.132	 250.795
 1254	 17.6680	  1.4460	   4.136	 250.995
 1255	 17.6680	  1.4500	   4.140	 251.195
 1256	 17.6680	  1.4520	   4.142	 251.395
 1257	 17.6680	  1.4560	   4.146	 251.595
 1258	 17.6680	  1.4600	   4.149	 251.795
 1259	 17.6680	  1.4620	   4.152	 251.995
 1260	 17.6680	  1.4660	   4.156	 252.195
 1261	 17.6680	  1.4700	   4.159	 252.395
 1262	 17.6640	  1.4720	   4.162	 252.595
 1263	 17.6640	  1.4760	   4.165	 252.795
 1264	 17.6680	  1.4800	   4.169	 252.995
 1265	 17.6680	  1.4820	   4.173	 253.195
 1266	 17.6640	  1.4860	   4.175	 253.395
 1267	 17.6640	  1.4900	   4.179	 253.595
 1268	 17.6680	  1.4920	   4.182	 253.795
 1269	 17.6680	  1.4960	   4.185	 253.995
 1270	 17.6640	  1.4980	   4.189	 254.195
 1271	 17.6640	  1.5020	   4.193	 254.395
 1272	 17.6640	  1.5060	   4.195	 254.595
 1273	 17.6640	  1.5100	   4.199	 254.795
 1274	 17.6640	  1.5120	   4.201	 254.995
 1275	 17.6640	  1.5160	   4.205	 255.195
 1276	 17.6600	  1.5180	   4.209	 255.395
 1277	 17.6600	  1.5220	   4.211	 255.595
 1278	 17.6600	  1.5260	   4.215	 255.795
 1279	 17.6600	  1.5280	   4.217	 255.995
 1280	 17.6600	  1.5320	   4.221	 256.195
 1281	 17.6600	  1.5360	   4.225	 256.395
 1282	 17.6600	  1.5380	   4.227	 256.595
 1283	 17.6560	  1.5420	   4.231	 256.795
 1284	 17.6560	  1.5460	   4.235	 256.995
 1285	 17.6560	  1.5480	   4.237	 257.195
 1286	 17.6560	  1.5520	   4.241	 257.395
 1287	 17.6560	  1.5560	   4.245	 257.595
 1288	 17.6560	  1.5580	   4.247	 257.795
 1289	 17.6560	  1.5620	   4.251	 257.995
 1290	 17.6520	  1.5660	   4.255	 258.195
 1291	 17.6520	  1.5680	   4.257	 258.395
 1292	 17.6520	  1.5720	   4.261	 258.595
 1293	 17.6520	  1.5760	   4.264	 258.795
 1294	 17.6520	  1.5780	   4.267	 258.995
 1295	 17.6480	  1.5820	   4.271	 259.195
 1296	 17.6480	  1.5860	   4.274	 259.395
 1297	 17.6480	  1.5880	   4.277	 259.595
 1298	 17.6480	  1.5920	   4.281	 259.795
 1299	 17.6480	  1.5960	   4.284	 259.995
 1300	 17.6480	  1.6000	   4.287	 260.195
 1301	 17.6480	  1.6020	   4.290	 260.395
 1302	 17.6440	  1.6060	   4.294	 260.595
 1303	 17.6440	  1.6080	   4.298	 260.795
 1304	 17.6440	  1.6120	   4.300	 260.995
 1305	 17.6440	  1.6160	   4.304	 261.195
 1306	 17.6400	  1.6200	   4.307	 261.395
 1307	 17.6400	  1.6220	   4.310	 261.595
 1308	 17.6360	  1.6260	   4.314	 261.795
 1309	 17.6360	  1.6300	   4.316	 261.995
 1310	 17.6360	  1.6320	   4.320	 262.195
 1311	 17.6360	  1.6360	   4.324	 262.395
 1312	 17.6320	  1.6400	   4.326	 262.595
 1313	 17.6360	  1.6420	   4.330	 262.795
 1314	 17.6320	  1.6460	   4.334	 262.995
 1315	 17.6320	  1.6500	   4.336	 263.195
 1316	 17.6320	  1.6520	   4.340	 263.395
 1317	 17.6280	  1.6560	   4.344	 263.595
 1318	 17.6280	  1.6600	   4.346	 263.795
 1319	 17.6240	  1.6620	   4.350	 263.995
 1320	 17.6280	  1.6660	   4.352	 264.195
 1321	 17.6240	  1.6700	   4.356	 264.395
 1322	 17.6240	  1.6740	   4.360	 264.595
 1323	 17.6240	  1.6760	   4.362	 264.795
 1324	 17.6240	  1.6800	   4.366	 264.995
 1325	 17.6200	  1.6840	   4.370	 265.195
 1326	 17.6160	  1.6860	   4.372	 265.395
 1327	 17.6160	  1.6900	   4.376	 265.595
 1328	 17.6160	  1.6940	   4.380	 265.795
 1329	 17.6120	  1.6980	   4.382	 265.995
 1330	 17.6080	  1.7000	   4.386	 266.195
 1331	 17.6080	  1.7040	   4.389	 266.395
 1332	 17.6080	  1.7080	   4.392	 266.595
 1333	 17.6080	  1.7100	   4.396	 266.795
 1334	 17.6080	  1.7140	   4.399	 266.995
 1335	 17.6040	  1.7180	   4.402	 267.195
 1336	 17.6040	  1.7200	   4.406	 267.395
 1337	 17.6000	  1.7240	   4.409	 267.595
 1338	 17.6000	  1.7280	   4.412	 267.795
 1339	 17.5960	  1.7320	   4.416	 267.995
 1340	 17.5960	  1.7340	   4.419	 268.195
 1341	 17.5960	  1.7380	   4.423	 268.395
 1342	 17.5920	  1.7420	   4.425	 268.595
 1343	 17.5920	  1.7460	   4.429	 268.795
 1344	 17.5920	  1.7480	   4.432	 268.995
 1345	 17.5880	  1.7520	   4.435	 269.195
 1346	 17.5880	  1.7560	   4.439	 269.395
 1347	 17.5840	  1.7580	   4.443	 269.595
 1348	 17.5840	  1.7620	   4.445	 269.795
 1349	 17.5800	  1.7660	   4.449	 269.995
 1350	 17.5800	  1.7680	   4.452	 270.195
 1351	 17.5760	  1.7720	   4.455	 270.395
 1352	 17.5720	  1.7760	   4.459	 270.595
 1353	 17.5720	  1.7800	   4.461	 270.795
 1354	 17.5680	  1.7820	   4.465	 270.995
 1355	 17.5680	  1.7860	   4.469	 271.195
 1356	 17.5640	  1.7900	   4.471	 271.395
 1357	 17.5640	  1.7940	   4.475	 271.595
 1358	 17.5600	  1.7960	   4.477	 271.795
 1359	 17.5600	  1.8000	   4.481	 271.995
 1360	 17.5560	  1.8020	   4.485	 272.195
 1361	 17.5560	  1.8060	   4.487	 272.395
 1362	 17.5520	  1.8100	   4.491	 272.595
 1363	 17.5520	  1.8140	   4.495	 272.795
 1364	 17.5480	  1.8180	   4.497	 272.995
 1365	 17.5440	  1.8200	   4.501	 273.195
 1366	 17.5440	  1.8240	   4.505	 273.395
 1367	 17.5400	  1.8280	   4.507	 273.595
 1368	 17.5400	  1.8320	   4.511	 273.795
 1369	 17.5360	  1.8360	   4.514	 273.995
 1370	 17.5320	  1.8380	   4.517	 274.195
 1371	 17.5280	  1.8420	   4.521	 274.395
 1372	 17.5280	  1.8440	   4.524	 274.595
 1373	 17.5240	  1.8480	   4.527	 274.795
 1374	 17.5240	  1.8520	   4.531	 274.995
 1375	 17.5160	  1.8560	   4.534	 275.195
 1376	 17.5160	  1.8580	   4.537	 275.395
 1377	 17.5120	  1.8620	   4.541	 275.595
 1378	 17.5080	  1.8660	   4.544	 275.795
 1379	 17.5080	  1.8700	   4.548	 275.995
 1380	 17.5040	  1.8720	   4.551	 276.195
 1381	 17.5040	  1.8760	   4.554	 276.395
 1382	 17.5000	  1.8800	   4.557	 276.595
 1383	 17.4960	  1.8820	   4.560	 276.795
 1384	 17.4920	  1.8860	   4.564	 276.995
 1385	 17.4920	  1.8900	   4.568	 277.195
 1386	 17.4880	  1.8940	   4.570	 277.395
 1387	 17.4840	  1.8960	   4.574	 277.595
 1388	 17.4800	  1.9000	   4.577	 277.795
 1389	 17.4760	  1.9040	   4.580	 277.995
 1390	 17.4760	  1.9080	   4.584	 278.195
 1391	 17.4720	  1.9100	   4.586	 278.395
 1392	 17.4680	  1.9140	   4.590	 278.595
 1393	 17.4640	  1.9180	   4.594	 278.795
 1394	 17.4640	  1.9200	   4.596	 278.995
 1395	 17.4600	  1.9260	   4.600	 279.195
 1396	 17.4560	  1.9280	   4.604	 279.395
 1397	 17.4520	  1.9320	   4.606	 279.595
 1398	 17.4480	  1.9360	   4.610	 279.795
 1399	 17.4440	  1.9380	   4.612	 279.995
 1400	 17.4400	  1.9420	   4.616	 280.195
 1401	 17.4360	  1.9460	   4.620	 280.395
 1402	 17.4360	  1.9480	   4.622	 280.595
 1403	 17.4280	  1.9520	   4.626	 280.795
 1404	 17.4280	  1.9560	   4.630	 280.995
 1405	 17.4240	  1.9600	   4.632	 281.195
 1406	 17.4200	  1.9620	   4.636	 281.395
 1407	 17.4160	  1.9660	   4.640	 281.595
 1408	 17.4120	  1.9700	   4.642	 281.795
 1409	 17.4080	  1.9740	   4.646	 281.995
 1410	 17.4040	  1.9780	   4.650	 282.195
 1411	 17.4000	  1.9800	   4.652	 282.395
 1412	 17.3960	  1.9840	   4.656	 282.595
 1413	 17.3920	  1.9880	   4.659	 282.795
 1414	 17.3880	  1.9900	   4.662	 282.995
 1415	 17.3880	  1.9940	   4.666	 283.195
 1416	 17.3800	  1.9980	   4.669	 283.395
 1417	 17.3760	  2.0020	   4.673	 283.595
 1418	 17.3760	  2.0060	   4.676	 283.795
 1419	 17.3680	  2.0080	   4.679	 283.995
 1420	 17.3640	  2.0120	   4.682	 284.195
 1421	 17.3600	  2.0160	   4.685	 284.395
 1422	 17.3560	  2.0200	   4.689	 284.595
 1423	 17.3520	  2.0220	   4.693	 284.795
 1424	 17.3480	  2.0260	   4.695	 284.995
 1425	 17.3440	  2.0300	   4.699	 285.195
 1426	 17.3400	  2.0340	   4.702	 285.395
 1427	 17.3400	  2.0360	   4.705	 285.595
 1428	 17.3360	  2.0400	   4.709	 285.795
 1429	 17.3280	  2.0440	   4.711	 285.995
 1430	 17.3280	  2.0460	   4.715	 286.195
 1431	 17.3200	  2.0500	   4.719	 286.395
 1432	 17.3160	  2.0540	   4.721	 286.595
 1433	 17.3120	  2.0580	   4.725	 286.795
 1434	 17.3080	  2.0620	   4.729	 286.995
 1435	 17.3040	  2.0640	   4.731	 287.195
 1436	 17.3000	  2.0680	   4.735	 287.395
 1437	 17.2960	  2.0720	   4.737	 287.595
 1438	 17.2920	  2.0760	   4.741	 287.795
 1439	 17.2880	  2.0780	   4.745	 287.995
 1440	 17.2840	  2.0820	   4.747	 288.195
 1441	 17.2800	  2.0860	   4.751	 288.395
 1442	 17.2720	  2.0900	   4.755	 288.595
 1443	 17.2680	  2.0920	   4.757	 288.795
 1444	 17.2640	  2.0960	   4.761	 288.995
 1445	 17.2600	  2.1000	   4.765	 289.195
 1446	 17.2560	  2.1040	   4.767	 289.395
 1447	 17.2520	  2.1080	   4.771	 289.595
 1448	 17.2440	  2.1100	   4.775	 289.795
 1449	 17.2440	  2.1140	   4.777	 289.995
 1450	 17.2400	  2.1180	   4.781	 290.195
 1451	 17.2320	  2.1220	   4.785	 290.395
 1452	 17.2280	  2.1240	   4.787	 290.595
 1453	 17.2240	  2.1280	   4.791	 290.795
 1454	 17.2200	  2.1320	   4.794	 290.995
 1455	 17.2160	  2.1360	   4.797	 291.195
 1456	 17.2120	  2.1380	   4.801	 291.395
 1457	 17.2080	  2.1420	   4.804	 291.595
 1458	 17.2000	  2.1460	   4.807	 291.795
 1459	 17.1960	  2.1500	   4.811	 291.995
 1460	 17.1920	  2.1520	   4.814	 292.195
 1461	 17.1880	  2.1560	   4.818	 292.395
 1462	 17.1840	  2.1600	   4.820	 292.595
 1463	 17.1760	  2.1640	   4.824	 292.795
 1464	 17.1720	  2.1660	   4.827	 292.995
 1465	 17.1640	  2.1700	   4.830	 293.195
 1466	 17.1640	  2.1740	   4.834	 293.395
 1467	 17.1600	  2.1780	   4.836	 293.595
 1468	 17.1560	  2.1800	   4.840	 293.795
 1469	 17.1480	  2.1840	   4.844	 293.995
 1470	 17.1440	  2.1880	   4.846	 294.195
 1471	 17.1400	  2.1920	   4.850	 294.395
 1472	 17.1360	  2.1960	   4.854	 294.595
 1473	 17.1280	  2.1980	   4.856	 294.795
 1474	 17.1240	  2.2020	   4.860	 294.995
 1475	 17.1200	  2.2060	   4.862	 295.195
 1476	 17.1160	  2.2100	   4.866	 295.395
 1477	 17.1120	  2.2120	   4.870	 295.595
 1478	 17.1080	  2.2160	   4.872	 295.795
 1479	 17.1000	  2.2200	   4.876	 295.995
 1480	 17.0960	  2.2240	   4.880	 296.195
 1481	 17.0920	  2.2260	   4.882	 296.395
 1482	 17.0840	  2.2300	   4.886	 296.595
 1483	 17.0800	  2.2340	   4.889	 296.795
 1484	 17.0760	  2.2380	   4.892	 296.995
 1485	 17.0720	  2.2420	   4.896	 297.195
 1486	 17.0640	  2.2440	   4.899	 297.395
 1487	 17.0600	  2.2480	   4.902	 297.595
 1488	 17.0560	  2.2520	   4.906	 297.795
 1489	 17.0520	  2.2560	   4.909	 297.995
 1490	 17.0480	  2.2580	   4.912	 298.195
 1491	 17.0400	  2.2620	   4.916	 298.395
 1492	 17.0360	  2.2660	   4.919	 298.595
 1493	 17.0320	  2.2700	   4.922	 298.795
 1494	 17.0280	  2.2720	   4.925	 298.995
 1495	 17.0240	  2.2760	   4.929	 299.195
 1496	 17.0160	  2.2800	   4.932	 299.395
 1497	 17.0120	  2.2840	   4.935	 299.595
 1498	 17.0080	  2.2880	   4.939	 299.795
 1499	 17.0000	  2.2900	   4.941	 299.995
 1500	 16.9960	  2.2940	   4.945	 300.195
 1501	 16.9920	  2.2980	   4.949	 300.395
 1502	 16.9840	  2.3020	   4.951	 300.595
 1503	 16.9800	  2.3040	   4.955	 300.795
 1504	 16.9760	  2.3080	   4.959	 300.995
 1505	 16.9680	  2.3120	   4.961	 301.195
 1506	 16.9640	  2.3160	   4.965	 301.395
 1507	 16.9600	  2.3200	   4.967	 301.595
 1508	 16.9520	  2.3220	   4.971	 301.795
 1509	 16.9480	  2.3260	   4.975	 301.995
 1510	 16.9440	  2.3300	   4.977	 302.195
 1511	 16.9400	  2.3340	   4.981	 302.395
 1512	 16.9360	  2.3380	   4.985	 302.595
 1513	 16.9280	  2.3400	   4.987	 302.795
 1514	 16.9240	  2.3440	   4.991	 302.995
 1515	 16.9160	  2.3480	   4.995	 303.195
 1516	 16.9120	  2.3520	   4.997	 303.395
 1517	 16.9080	  2.3560	   5.001	 303.595
 1518	 16.9040	  2.3580	   5.005	 303.795
 1519	 16.8960	  2.3620	   5.007	 303.995
 1520	 16.8920	  2.3660	   5.011	 304.195
 1521	 16.8880	  2.3700	   5.015	 304.395
 1522	 16.8800	  2.3720	   5.017	 304.595
 1523	 16.8760	  2.3760	   5.021	 304.795
 1524	 16.8720	  2.3800	   5.025	 304.995
 1525	 16.8640	  2.3840	   5.027	 305.195
 1526	 16.8600	  2.3860	   5.031	 305.395
 1527	 16.8560	  2.3900	   5.034	 305.595
 1528	 16.8520	  2.3940	   5.037	 305.795
 1529	 16.8440	  2.3980	   5.041	 305.995
 1530	 16.8400	  2.4020	   5.044	 306.195
 1531	 16.8360	  2.4040	   5.047	 306.395
 1532	 16.8280	  2.4080	   5.051	 306.595
 1533	 16.8240	  2.4120	   5.054	 306.795
 1534	 16.8200	  2.4160	   5.057	 306.995
 1535	 16.8120	  2.4180	   5.060	 307.195
 1536	 16.8080	  2.4220	   5.064	 307.395
 1537	 16.8040	  2.4260	   5.068	 307.595
 1538	 16.7960	  2.4300	   5.070	 307.795
 1539	 16.7920	  2.4340	   5.074	 307.995
 1540	 16.7880	  2.4380	   5.076	 308.195
 1541	 16.7840	  2.4400	   5.080	 308.395
 1542	 16.7760	  2.4440	   5.082	 308.595
 1543	 16.7720	  2.4480	   5.086	 308.795
 1544	 16.7680	  2.4520	   5.090	 308.995
 1545	 16.7600	  2.4540	   5.092	 309.195
 1546	 16.7560	  2.4580	   5.096	 309.395
 1547	 16.7480	  2.4620	   5.099	 309.595
 1548	 16.7440	  2.4600	   5.102	 309.795
 1549	 16.7400	  2.4620	   5.106	 309.995
 1550	 16.7360	  2.4660	   5.109	 310.195
 1551	 16.7280	  2.4700	   5.112	 310.395
 1552	 16.7240	  2.4724	   5.115	 310.595
 1553	 16.7160	  2.4762	   5.119	 310.795
 1554	 16.7080	  2.4787	   5.121	 310.995
 1555	 16.7040	  2.4824	   5.125	 311.195
 1556	 16.7000	  2.4849	   5.128	 311.395
 1557	 16.6960	  2.4887	   5.131	 311.595
 1558	 16.6880	  2.4924	   5.135	 311.795
 1559	 16.6840	  2.4949	   5.137	 311.995
 1560	 16.6800	  2.4987	   5.141	 312.195
 1561	 16.6760	  2.5012	   5.144	 312.395
 1562	 16.6680	  2.5049	   5.148	 312.595
 1563	 16.6640	  2.5074	   5.150	 312.795
 1564	 16.6560	  2.5112	   5.154	 312.995
 1565	 16.6520	  2.5137	   5.156	 313.195
 1566	 16.6440	  2.5174	   5.160	 313.395
 1567	 16.6400	  2.5199	   5.162	 313.595
 1568	 16.6360	  2.5237	   5.166	 313.795
 1569	 16.6320	  2.5262	   5.169	 313.995
 1570	 16.6240	  2.5299	   5.172	 314.195
 1571	 16.6200	  2.5324	   5.175	 314.395
 1572	 16.6160	  2.5362	   5.179	 314.595
 1573	 16.6120	  2.5387	   5.181	 314.795
 1574	 16.6040	  2.5424	   5.185	 314.995
 1575	 16.5960	  2.5449	   5.188	 315.195
 1576	 16.5880	  2.5487	   5.191	 315.395
 1577	 16.5840	  2.5512	   5.194	 315.595
 1578	 16.5800	  2.5549	   5.197	 315.795
 1579	 16.5720	  2.5574	   5.200	 315.995
 1580	 16.5680	  2.5599	   5.202	 316.195
 1581	 16.5640	  2.5637	   5.206	 316.395
 1582	 16.5560	  2.5662	   5.209	 316.595
 1583	 16.5520	  2.5699	   5.213	 316.795
 1584	 16.5480	  2.5724	   5.215	 316.995
 1585	 16.5440	  2.5749	   5.217	 317.195
 1586	 16.5360	  2.5787	   5.221	 317.395
 1587	 16.5320	  2.5824	   5.225	 317.595
 1588	 16.5240	  2.5849	   5.227	 317.795
 1589	 16.5200	  2.5874	   5.230	 317.995
 1590	 16.5160	  2.5912	   5.234	 318.195
 1591	 16.5080	  2.5937	   5.236	 318.395
 1592	 16.5040	  2.5974	   5.240	 318.595
 1593	 16.5000	  2.5999	   5.242	 318.795
 1594	 16.4920	  2.6024	   5.245	 318.995
 1595	 16.4880	  2.6062	   5.249	 319.195
 1596	 16.4800	  2.6087	   5.251	 319.395
 1597	 16.4760	  2.6124	   5.255	 319.595
 1598	 16.4680	  2.6149	   5.257	 319.795
 1599	 16.4640	  2.6187	   5.261	 319.995
 1600	 16.4600	  2.6212	   5.264	 320.195
 1601	 16.4520	  2.6237	   5.266	 320.395
 1602	 16.4480	  2.6274	   5.270	 320.595
 1603	 16.4440	  2.6299	   5.273	 320.795
 1604	 16.4360	  2.6337	   5.276	 320.995
 1605	 16.4320	  2.6362	   5.279	 321.195
 1606	 16.4240	  2.6399	   5.282	 321.395
 1607	 16.4200	  2.6424	   5.285	 321.595
 1608	 16.4120	  2.6462	   5.289	 321.795
 1609	 16.4080	  2.6487	   5.291	 321.995
 1610	 16.4040	  2.6524	   5.295	 322.195
 1611	 16.3960	  2.6549	   5.297	 322.395
 1612	 16.3920	  2.6574	   5.300	 322.595
 1613	 16.3880	  2.6612	   5.304	 322.795
 1614	 16.3800	  2.6637	   5.306	 322.995
 1615	 16.3720	  2.6674	   5.310	 323.195
 1616	 16.3680	  2.6699	   5.312	 323.395
 1617	 16.3600	  2.6737	   5.316	 323.595
 1618	 16.3560	  2.6762	   5.319	 323.795
 1619	 16.3480	  2.6787	   5.321	 323.995
 1620	 16.3440	  2.6824	   5.325	 324.195
 1621	 16.3400	  2.6849	   5.327	 324.395
 1622	 16.3320	  2.6887	   5.331	 324.595
 1623	 16.3280	  2.6912	   5.334	 324.795
 1624	 16.3200	  2.6949	   5.338	 324.995
 1625	 16.3160	  2.6974	   5.340	 325.195
 1626	 16.3120	  2.7012	   5.344	 325.395
 1627	 16.3040	  2.7037	   5.346	 325.595
 1628	 16.3000	  2.7074	   5.350	 325.795
 1629	 16.2920	  2.7099	   5.352	 325.995
 1630	 16.2880	  2.7137	   5.356	 326.195
 1631	 16.2800	  2.7162	   5.359	 326.395
 1632	 16.2760	  2.7199	   5.362	 326.595
 1633	 16.2720	  2.7224	   5.365	 326.795
 1634	 16.2640	  2.7262	   5.369	 326.995
 1635	 16.2560	  2.7287	   5.371	 327.195
 1636	 16.2520	  2.7324	   5.375	 327.395
 1637	 16.2440	  2.7349	   5.378	 327.595
 1638	 16.2400	  2.7387	   5.381	 327.795
 1639	 16.2320	  2.7412	   5.384	 327.995
 1640	 16.2280	  2.7449	   5.387	 328.195
 1641	 16.2200	  2.7474	   5.390	 328.395
 1642	 16.2160	  2.7512	   5.394	 328.595
 1643	 16.2080	  2.7537	   5.396	 328.795
 1644	 16.2080	  2.7574	   5.400	 328.995
 1645	 16.2000	  2.7612	   5.404	 329.195
 1646	 16.1920	  2.7637	   5.406	 329.395
 1647	 16.1880	  2.7674	   5.410	 329.595
 1648	 16.1800	  2.7699	   5.412	 329.795
 1649	 16.1760	  2.7737	   5.416	 329.995
 1650	 16.1680	  2.7762	   5.419	 330.195
 1651	 16.1640	  2.7799	   5.422	 330.395
 1652	 16.1560	  2.7824	   5.425	 330.595
 1653	 16.1520	  2.7862	   5.429	 330.795
 1654	 16.1480	  2.7899	   5.432	 330.995
 1655	 16.1400	  2.7924	   5.435	 331.195
 1656	 16.1360	  2.7962	   5.439	 331.395
 1657	 16.1280	  2.7987	   5.441	 331.595
 1658	 16.1200	  2.8024	   5.445	 331.795
 1659	 16.1160	  2.8062	   5.449	 331.995
 1660	 16.1080	  2.8087	   5.451	 332.195
 1661	 16.1040	  2.8124	   5.455	 332.395
 1662	 16.0960	  2.8149	   5.457	 332.595
 1663	 16.0920	  2.8187	   5.461	 332.795
 1664	 16.0840	  2.8224	   5.465	 332.995
 1665	 16.0800	  2.8249	   5.467	 333.195
 1666	 16.0720	  2.8287	   5.471	 333.395
 1667	 16.0680	  2.8324	   5.475	 333.595
 1668	 16.0600	  2.8349	   5.477	 333.795
 1669	 16.0560	  2.8387	   5.481	 333.995
 1670	 16.0480	  2.8424	   5.485	 334.195
 1671	 16.0440	  2.8449	   5.487	 334.395
 1672	 16.0360	  2.8487	   5.491	 334.595
 1673	 16.0320	  2.8524	   5.495	 334.795
 1674	 16.0240	  2.8549	   5.497	 334.995
 1675	 16.0200	  2.8574	   5.500	 335.195
 1676	 16.0120	  2.8612	   5.504	 335.395
 1677	 16.0080	  2.8649	   5.507	 335.595
 1678	 16.0000	  2.8674	   5.510	 335.795
 1679	 15.9920	  2.8712	   5.514	 335.995
 1680	 15.9840	  2.8749	   5.517	 336.195
 1681	 15.9800	  2.8774	   5.520	 336.395
 1682	 15.9760	  2.8812	   5.524	 336.595
 1683	 15.9680	  2.8849	   5.527	 336.795
 1684	 15.9640	  2.8874	   5.530	 336.995
 1685	 15.9560	  2.8912	   5.534	 337.195
 1686	 15.9520	  2.8949	   5.537	 337.395
 1687	 15.9440	  2.8974	   5.540	 337.595
 1688	 15.9400	  2.9012	   5.544	 337.795
 1689	 15.9360	  2.9037	   5.546	 337.995
 1690	 15.9280	  2.9074	   5.550	 338.195
 1691	 15.9200	  2.9112	   5.554	 338.395
 1692	 15.9160	  2.9137	   5.556	 338.595
 1693	 15.9080	  2.9174	   5.560	 338.795
 1694	 15.9000	  2.9199	   5.562	 338.995
 1695	 15.8960	  2.9237	   5.566	 339.195
 1696	 15.8880	  2.9274	   5.570	 339.395
 1697	 15.8840	  2.9299	   5.572	 339.595
 1698	 15.8760	  2.9337	   5.576	 339.795
 1699	 15.8720	  2.9374	   5.580	 339.995
 1700	 15.8640	  2.9399	   5.582	 340.195
 1701	 15.8560	  2.9437	   5.586	 340.395
 1702	 15.8520	  2.9474	   5.590	 340.595
 1703	 15.8440	  2.9499	   5.592	 340.795
 1704	 15.8360	  2.9537	   5.596	 340.995
 1705	 15.8320	  2.9574	   5.600	 341.195
 1706	 15.8240	  2.9599	   5.602	 341.395
 1707	 15.8200	  2.9637	   5.606	 341.595
 1708	 15.8160	  2.9662	   5.609	 341.795
 1709	 15.8040	  2.9699	   5.612	 341.995
 1710	 15.8000	  2.9737	   5.616	 342.195
 1711	 15.7920	  2.9762	   5.619	 342.395
 1712	 15.7840	  2.9799	   5.622	 342.595
 1713	 15.7800	  2.9837	   5.626	 342.795
 1714	 15.7720	  2.9862	   5.629	 342.995
 1715	 15.7680	  2.9899	   5.632	 343.195
 1716	 15.7640	  2.9924	   5.635	 343.395
 1717	 15.7560	  2.9962	   5.639	 343.595
 1718	 15.7520	  2.9999	   5.642	 343.795
 1719	 15.7440	  3.0024	   5.645	 343.995
 1720	 15.7360	  3.0062	   5.649	 344.195
 1721	 15.7280	  3.0099	   5.652	 344.395
 1722	 15.7240	  3.0124	   5.655	 344.595
 1723	 15.7160	  3.0162	   5.659	 344.795
 1724	 15.7080	  3.0187	   5.661	 344.995
 1725	 15.7040	  3.0224	   5.665	 345.195
 1726	 15.6960	  3.0262	   5.669	 345.395
 1727	 15.6880	  3.0287	   5.671	 345.595
 1728	 15.6840	  3.0324	   5.675	 345.795
 1729	 15.6760	  3.0362	   5.679	 345.995
 1730	 15.6680	  3.0387	   5.681	 346.195
 1731	 15.6600	  3.0424	   5.685	 346.395
 1732	 15.6560	  3.0462	   5.689	 346.595
 1733	 15.6480	  3.0487	   5.691	 346.795
 1734	 15.6440	  3.0524	   5.695	 346.995
 1735	 15.6360	  3.0549	   5.697	 347.195
 1736	 15.6280	  3.0587	   5.701	 347.395
 1737	 15.6240	  3.0624	   5.705	 347.595
 1738	 15.6160	  3.0649	   5.707	 347.795
 1739	 15.6080	  3.0687	   5.711	 347.995
 1740	 15.6040	  3.0724	   5.715	 348.195
 1741	 15.5960	  3.0749	   5.717	 348.395
 1742	 15.5920	  3.0787	   5.721	 348.595
 1743	 15.5840	  3.0824	   5.725	 348.795
 1744	 15.5760	  3.0849	   5.727	 348.995
 1745	 15.5680	  3.0887	   5.731	 349.195
 1746	 15.5640	  3.0924	   5.735	 349.395
 1747	 15.5560	  3.0949	   5.737	 349.595
 1748	 15.5520	  3.0987	   5.741	 349.795
 1749	 15.5440	  3.1012	   5.744	 349.995
 1750	 15.5360	  3.1049	   5.747	 350.195
 1751	 15.5320	  3.1087	   5.751	 350.395
 1752	 15.5240	  3.1112	   5.754	 350.595
 1753	 15.5160	  3.1149	   5.757	 350.795
 1754	 15.5080	  3.1187	   5.761	 350.995
 1755	 15.5040	  3.1212	   5.764	 351.195
 1756	 15.4960	  3.1249	   5.767	 351.395
 1757	 15.4880	  3.1287	   5.771	 351.595
 1758	 15.4840	  3.1312	   5.774	 351.795
 1759	 15.4760	  3.1349	   5.777	 351.995
 1760	 15.4680	  3.1374	   5.780	 352.195
 1761	 15.4600	  3.1412	   5.784	 352.395
 1762	 15.4520	  3.1449	   5.787	 352.595
 1763	 15.4440	  3.1474	   5.790	 352.795
 1764	 15.4360	  3.1512	   5.794	 352.995
 1765	 15.4320	  3.1549	   5.797	 353.195
 1766	 15.4240	  3.1574	   5.800	 353.395
 1767	 15.4200	  3.1612	   5.804	 353.595
 1768	 15.4120	  3.1649	   5.807	 353.795
 1769	 15.4040	  3.1674	   5.810	 353.995
 1770	 15.3960	  3.1712	   5.814	 354.195
 1771	 15.3920	  3.1749	   5.817	 354.395
 1772	 15.3840	  3.1774	   5.820	 354.595
 1773	 15.3760	  3.1812	   5.824	 354.795
 1774	 15.3680	  3.1837	   5.826	 354.995
 1775	 15.3600	  3.1874	   5.830	 355.195
 1776	 15.3560	  3.1912	   5.834	 355.395
 1777	 15.3480	  3.1937	   5.836	 355.595
 1778	 15.3400	  3.1974	   5.840	 355.795
 1779	 15.3360	  3.2012	   5.844	 355.995
 1780	 15.3280	  3.2037	   5.846	 356.195
 1781	 15.3200	  3.2074	   5.850	 356.395
 1782	 15.3120	  3.2099	   5.852	 356.595
 1783	 15.3040	  3.2137	   5.856	 356.795
 1784	 15.2960	  3.2174	   5.860	 356.995
 1785	 15.2920	  3.2199	   5.862	 357.195
 1786	 15.2840	  3.2237	   5.866	 357.395
 1787	 15.2760	  3.2274	   5.870	 357.595
 1788	 15.2680	  3.2299	   5.872	 357.795
 1789	 15.2600	  3.2337	   5.876	 357.995
 1790	 15.2560	  3.2374	   5.880	 358.195
 1791	 15.2480	  3.2399	   5.882	 358.395
 1792	 15.2400	  3.2437	   5.886	 358.595
 1793	 15.2320	  3.2462	   5.889	 358.795
 1794	 15.2240	  3.2499	   5.892	 358.995
 1795	 15.2160	  3.2537	   5.896	 359.195
 1796	 15.2080	  3.2562	   5.899	 359.395
 1797	 15.2040	  3.2599	   5.902	 359.595
 1798	 15.1960	  3.2637	   5.906	 359.795
 1799	 15.1880	  3.2662	   5.909	 359.995
 1800	 15.1800	  3.2699	   5.912	 360.195
 1801	 15.1720	  3.2737	   5.916	 360.395
 1802	 15.1640	  3.2762	   5.919	 360.595
 1803	 15.1600	  3.2799	   5.922	 360.795
 1804	 15.1480	  3.2824	   5.925	 360.995
 1805	 15.1440	  3.2862	   5.929	 361.195
 1806	 15.1360	  3.2899	   5.932	 361.395
 1807	 15.1280	  3.2924	   5.935	 361.595
 1808	 15.1200	  3.2962	   5.939	 361.795
 1809	 15.1120	  3.2999	   5.942	 361.995
 1810	 15.1040	  3.3024	   5.945	 362.195
 1811	 15.0960	  3.3062	   5.949	 362.395
 1812	 15.0920	  3.3099	   5.952	 362.595
 1813	 15.0840	  3.3124	   5.955	 362.795
 1814	 15.0720	  3.3162	   5.959	 362.995
 1815	 15.0640	  3.3187	   5.961	 363.195
 1816	 15.0600	  3.3224	   5.965	 363.395
 1817	 15.0520	  3.3262	   5.969	 363.595
 1818	 15.0400	  3.3287	   5.971	 363.795
 1819	 15.0360	  3.3324	   5.975	 363.995
 1820	 15.0320	  3.3362	   5.979	 364.195
 1821	 15.0200	  3.3387	   5.981	 364.395
 1822	 15.0120	  3.3424	   5.985	 364.595
 1823	 15.0040	  3.3449	   5.987	 364.795
 1824	 14.9960	  3.3487	   5.991	 364.995
 1825	 14.9880	  3.3524	   5.995	 365.195
 1826	 14.9840	  3.3549	   5.997	 365.395
 1827	 14.9720	  3.3587	   6.001	 365.595
 1828	 14.9640	  3.3624	   6.005	 365.795
 1829	 14.9600	  3.3649	   6.007	 365.995
 1830	 14.9520	  3.3687	   6.011	 366.195
 1831	 14.9440	  3.3712	   6.014	 366.395
 1832	 14.9360	  3.3749	   6.017	 366.595
 1833	 14.9280	  3.3774	   6.020	 366.795
 1834	 14.9200	  3.3812	   6.024	 366.995
 1835	 14.9120	  3.3849	   6.027	 367.195
 1836	 14.9040	  3.3874	   6.030	 367.395
 1837	 14.8960	  3.3912	   6.034	 367.595
 1838	 14.8880	  3.3937	   6.036	 367.795
 1839	 14.8800	  3.3974	   6.040	 367.995
 1840	 14.8720	  3.3999	   6.043	 368.195
 1841	 14.8640	  3.4037	   6.046	 368.395
 1842	 14.8560	  3.4062	   6.049	 368.595
 1843	 14.8480	  3.4099	   6.052	 368.795
 1844	 14.8400	  3.4137	   6.056	 368.995
 1845	 14.8320	  3.4162	   6.059	 369.195
 1846	 14.8240	  3.4199	   6.062	 369.395
 1847	 14.8160	  3.4224	   6.065	 369.595
 1848	 14.8080	  3.4262	   6.069	 369.795
 1849	 14.8000	  3.4287	   6.071	 369.995
 1850	 14.7920	  3.4324	   6.075	 370.195
 1851	 14.7840	  3.4349	   6.077	 370.395
 1852	 14.7760	  3.4387	   6.081	 370.595
 1853	 14.7680	  3.4424	   6.085	 370.795
 1854	 14.7600	  3.4449	   6.088	 370.995
 1855	 14.7520	  3.4487	   6.091	 371.195
 1856	 14.7440	  3.4512	   6.094	 371.395
 1857	 14.7360	  3.4549	   6.097	 371.595
 1858	 14.7240	  3.4574	   6.100	 371.795
 1859	 14.7160	  3.4612	   6.104	 371.995
 1860	 14.7080	  3.4637	   6.106	 372.195
 1861	 14.7000	  3.4674	   6.110	 372.395
 1862	 14.6920	  3.4699	   6.112	 372.595
 1863	 14.6840	  3.4737	   6.116	 372.795
 1864	 14.6760	  3.4762	   6.119	 372.995
 1865	 14.6680	  3.4799	   6.122	 373.195
 1866	 14.6600	  3.4824	   6.125	 373.395
 1867	 14.6520	  3.4862	   6.129	 373.595
 1868	 14.6440	  3.4887	   6.131	 373.795
 1869	 14.6320	  3.4924	   6.135	 373.995
 1870	 14.6240	  3.4949	   6.137	 374.195
 1871	 14.6160	  3.4987	   6.141	 374.395
 1872	 14.6120	  3.5024	   6.145	 374.595
 1873	 14.6000	  3.5049	   6.148	 374.795
 1874	 14.5920	  3.5087	   6.151	 374.995
 1875	 14.5840	  3.5112	   6.154	 375.195
 1876	 14.5760	  3.5149	   6.157	 375.395
 1877	 14.5680	  3.5174	   6.160	 375.595
 1878	 14.5600	  3.5212	   6.164	 375.795
 1879	 14.5520	  3.5237	   6.166	 375.995
 1880	 14.5440	  3.5274	   6.170	 376.195
 1881	 14.5360	  3.5299	   6.172	 376.395
 1882	 14.5240	  3.5337	   6.176	 376.595
 1883	 14.5160	  3.5362	   6.179	 376.795
 1884	 14.5080	  3.5399	   6.182	 376.995
 1885	 14.5000	  3.5437	   6.186	 377.195
 1886	 14.4920	  3.5462	   6.189	 377.395
 1887	 14.4840	  3.5499	   6.192	 377.595
 1888	 14.4720	  3.5524	   6.195	 377.795
 1889	 14.4640	  3.5562	   6.199	 377.995
 1890	 14.4560	  3.5587	   6.201	 378.195
 1891	 14.4480	  3.5624	   6.205	 378.395
 1892	 14.4360	  3.5649	   6.207	 378.595
 1893	 14.4280	  3.5687	   6.211	 378.795
 1894	 14.4200	  3.5724	   6.215	 378.995
 1895	 14.4120	  3.5749	   6.217	 379.195
 1896	 14.4040	  3.5787	   6.221	 379.395
 1897	 14.3920	  3.5812	   6.224	 379.595
 1898	 14.3840	  3.5849	   6.227	 379.795
 1899	 14.3760	  3.5874	   6.230	 379.995
 1900	 14.3680	  3.5912	   6.234	 380.195
 1901	 14.3560	  3.5937	   6.236	 380.395
 1902	 14.3480	  3.5974	   6.240	 380.595
 1903	 14.3440	  3.5999	   6.242	 380.795
 1904	 14.3320	  3.6037	   6.246	 380.995
 1905	 14.3240	  3.6062	   6.249	 381.195
 1906	 14.3160	  3.6099	   6.253	 381.395
 1907	 14.3080	  3.6137	   6.256	 381.595
 1908	 14.2960	  3.6162	   6.259	 381.795
 1909	 14.2880	  3.6199	   6.262	 381.995
 1910	 14.2800	  3.6224	   6.265	 382.195
 1911	 14.2720	  3.6262	   6.269	 382.395
 1912	 14.2600	  3.6287	   6.271	 382.595
 1913	 14.2520	  3.6324	   6.275	 382.795
 1914	 14.2440	  3.6349	   6.277	 382.995
 1915	 14.2320	  3.6387	   6.281	 383.195
 1916	 14.2240	  3.6424	   6.285	 383.395
 1917	 14.2160	  3.6449	   6.287	 383.595
 1918	 14.2080	  3.6487	   6.291	 383.795
 1919	 14.1960	  3.6512	   6.294	 383.995
 1920	 14.1880	  3.6549	   6.297	 384.195
 1921	 14.1760	  3.6587	   6.301	 384.395
 1922	 14.1680	  3.6612	   6.304	 384.595
 1923	 14.1600	  3.6649	   6.307	 384.795
 1924	 14.1520	  3.6674	   6.310	 384.995
 1925	 14.1400	  3.6712	   6.314	 385.195
 1926	 14.1320	  3.6737	   6.316	 385.395
 1927	 14.1240	  3.6774	   6.320	 385.595
 1928	 14.1120	  3.6799	   6.322	 385.795
 1929	 14.1040	  3.6837	   6.326	 385.995
 1930	 14.0960	  3.6874	   6.330	 386.195
 1931	 14.0880	  3.6899	   6.332	 386.395
 1932	 14.0760	  3.6937	   6.336	 386.595
 1933	 14.0680	  3.6962	   6.339	 386.795
 1934	 14.0600	  3.6999	   6.342	 386.995
 1935	 14.0480	  3.7037	   6.346	 387.195
 1936	 14.0400	  3.7062	   6.349	 387.395
 1937	 14.0320	  3.7099	   6.352	 387.595
 1938	 14.0200	  3.7137	   6.356	 387.795
 1939	 14.0120	  3.7162	   6.359	 387.995
 1940	 14.0000	  3.7199	   6.362	 388.195
 1941	 13.9920	  3.7224	   6.365	 388.395
 1942	 13.9840	  3.7262	   6.369	 388.595
 1943	 13.9720	  3.7299	   6.372	 388.795
 1944	 13.9640	  3.7324	   6.375	 388.995
 1945	 13.9520	  3.7362	   6.379	 389.195
 1946	 13.9440	  3.7387	   6.381	 389.395
 1947	 13.9320	  3.7424	   6.385	 389.595
 1948	 13.9240	  3.7462	   6.389	 389.795
 1949	 13.9120	  3.7487	   6.391	 389.995
 1950	 13.9040	  3.7524	   6.395	 390.195
 1951	 13.8920	  3.7549	   6.398	 390.395
 1952	 13.8840	  3.7587	   6.401	 390.595
 1953	 13.8760	  3.7624	   6.405	 390.795
 1954	 13.8640	  3.7649	   6.407	 390.995
 1955	 13.8560	  3.7687	   6.411	 391.195
 1956	 13.8440	  3.7724	   6.415	 391.395
 1957	 13.8360	  3.7749	   6.418	 391.595
 1958	 13.8240	  3.7787	   6.421	 391.795
 1959	 13.8160	  3.7812	   6.424	 391.995
 1960	 13.8040	  3.7849	   6.427	 392.195
 1961	 13.7960	  3.7887	   6.431	 392.395
 1962	 13.7840	  3.7912	   6.434	 392.595
 1963	 13.7760	  3.7949	   6.438	 392.795
 1964	 13.7640	  3.7974	   6.440	 392.995
 1965	 13.7560	  3.8012	   6.444	 393.195
 1966	 13.7440	  3.8049	   6.447	 393.395
 1967	 13.7360	  3.8074	   6.450	 393.595
 1968	 13.7240	  3.8112	   6.454	 393.795
 1969	 13.7160	  3.8137	   6.456	 393.995
 1970	 13.7040	  3.8174	   6.460	 394.195
 1971	 13.6960	  3.8212	   6.464	 394.395
 1972	 13.6840	  3.8237	   6.466	 394.595
 1973	 13.6760	  3.8274	   6.470	 394.795
 1974	 13.6640	  3.8299	   6.472	 394.995
 1975	 13.6560	  3.8337	   6.476	 395.195
 1976	 13.6440	  3.8374	   6.480	 395.395
 1977	 13.6320	  3.8399	   6.483	 395.595
 1978	 13.6240	  3.8437	   6.486	 395.795
 1979	 13.6120	  3.8474	   6.490	 395.995
 1980	 13.6000	  3.8499	   6.492	 396.195
 1981	 13.5880	  3.8537	   6.496	 396.395
 1982	 13.5800	  3.8562	   6.499	 396.595
 1983	 13.5680	  3.8599	   6.503	 396.795
 1984	 13.5600	  3.8637	   6.506	 396.995
 1985	 13.5480	  3.8662	   6.509	 397.195
 1986	 13.5400	  3.8699	   6.512	 397.395
 1987	 13.5280	  3.8737	   6.516	 397.595
 1988	 13.5160	  3.8762	   6.519	 397.795
 1989	 13.5040	  3.8799	   6.523	 397.995
 1990	 13.4960	  3.8824	   6.525	 398.195
 1991	 13.4840	  3.8862	   6.529	 398.395
 1992	 13.4720	  3.8899	   6.532	 398.595
 1993	 13.4640	  3.8924	   6.535	 398.795
 1994	 13.4520	  3.8962	   6.539	 398.995
 1995	 13.4400	  3.8987	   6.541	 399.195
 1996	 13.4280	  3.9024	   6.545	 399.395
 1997	 13.4200	  3.9062	   6.549	 399.595
 1998	 13.4080	  3.9087	   6.551	 399.795
 1999	 13.3960	  3.9124	   6.555	 399.995
 2000	 13.3840	  3.9162	   6.559	 400.195
 2001	 13.3760	  3.9187	   6.561	 400.395
 2002	 13.3680	  3.9224	   6.565	 400.595
 2003	 13.3520	  3.9249	   6.567	 400.795
 2004	 13.3440	  3.9287	   6.571	 400.995
 2005	 13.3320	  3.9324	   6.575	 401.195
 2006	 13.3200	  3.9349	   6.577	 401.395
 2007	 13.3080	  3.9387	   6.581	 401.595
 2008	 13.3000	  3.9424	   6.585	 401.795
 2009	 13.2880	  3.9449	   6.587	 401.995
 2010	 13.2760	  3.9487	   6.591	 402.195
 2011	 13.2640	  3.9524	   6.595	 402.395
 2012	 13.2520	  3.9549	   6.597	 402.595
 2013	 13.2400	  3.9587	   6.601	 402.795
 2014	 13.2320	  3.9612	   6.604	 402.995
 2015	 13.2200	  3.9649	   6.608	 403.195
 2016	 13.2080	  3.9687	   6.611	 403.395
 2017	 13.2000	  3.9712	   6.614	 403.595
 2018	 13.1840	  3.9749	   6.617	 403.795
 2019	 13.1720	  3.9787	   6.621	 403.995
 2020	 13.1600	  3.9812	   6.624	 404.195
 2021	 13.1480	  3.9849	   6.628	 404.395
 2022	 13.1360	  3.9887	   6.631	 404.595
 2023	 13.1240	  3.9912	   6.634	 404.795
 2024	 13.1120	  3.9949	   6.637	 404.995
 2025	 13.1000	  3.9974	   6.640	 405.195
 2026	 13.0920	  4.0012	   6.644	 405.395
 2027	 13.0800	  4.0049	   6.648	 405.595
 2028	 13.0680	  4.0074	   6.650	 405.795
 2029	 13.0560	  4.0112	   6.654	 405.995
 2030	 13.0440	  4.0149	   6.657	 406.195
 2031	 13.0320	  4.0174	   6.660	 406.395
 2032	 13.0200	  4.0212	   6.664	 406.595
 2033	 13.0080	  4.0237	   6.666	 406.795
 2034	 12.9960	  4.0274	   6.670	 406.995
 2035	 12.9800	  4.0312	   6.674	 407.195
 2036	 12.9720	  4.0337	   6.676	 407.395
 2037	 12.9600	  4.0374	   6.680	 407.595
 2038	 12.9480	  4.0412	   6.684	 407.795
 2039	 12.9360	  4.0437	   6.686	 407.995
 2040	 12.9200	  4.0474	   6.690	 408.195
 2041	 12.9120	  4.0499	   6.692	 408.395
 2042	 12.8960	  4.0537	   6.696	 408.595
 2043	 12.8840	  4.0574	   6.700	 408.795
 2044	 12.8720	  4.0599	   6.702	 408.995
 2045	 12.8600	  4.0637	   6.706	 409.195
 2046	 12.8480	  4.0674	   6.710	 409.395
 2047	 12.8360	  4.0699	   6.712	 409.595
 2048	 12.8240	  4.0737	   6.716	 409.795
 2049	 12.8120	  4.0762	   6.719	 409.995
 2050	 12.8000	  4.0799	   6.722	 410.195
 2051	 12.7880	  4.0837	   6.726	 410.395
 2052	 12.7720	  4.0862	   6.729	 410.595
 2053	 12.7600	  4.0899	   6.733	 410.795
 2054	 12.7480	  4.0937	   6.736	 410.995
 2055	 12.7320	  4.0962	   6.739	 411.195
 2056	 12.7200	  4.0999	   6.742	 411.395
 2057	 12.7080	  4.1037	   6.746	 411.595
 2058	 12.6960	  4.1062	   6.749	 411.795
 2059	 12.6840	  4.1099	   6.753	 411.995
 2060	 12.6680	  4.1124	   6.755	 412.195
 2061	 12.6560	  4.1162	   6.759	 412.395
 2062	 12.6440	  4.1199	   6.762	 412.595
 2063	 12.6280	  4.1224	   6.765	 412.795
 2064	 12.6160	  4.1262	   6.769	 412.995
 2065	 12.6000	  4.1299	   6.773	 413.195
 2066	 12.5880	  4.1324	   6.775	 413.395
 2067	 12.5760	  4.1362	   6.779	 413.595
 2068	 12.5640	  4.1399	   6.782	 413.795
 2069	 12.5520	  4.1424	   6.785	 413.995
 2070	 12.5360	  4.1462	   6.789	 414.195
 2071	 12.5240	  4.1487	   6.791	 414.395
 2072	 12.5120	  4.1524	   6.795	 414.595
 2073	 12.4960	  4.1562	   6.799	 414.795
 2074	 12.4840	  4.1587	   6.801	 414.995
 2075	 12.4680	  4.1624	   6.805	 415.195
 2076	 12.4560	  4.1662	   6.809	 415.395
 2077	 12.4400	  4.1687	   6.811	 415.595
 2078	 12.4240	  4.1724	   6.815	 415.795
 2079	 12.4080	  4.1762	   6.819	 415.995
 2080	 12.4000	  4.1787	   6.821	 416.195
 2081	 12.3800	  4.1824	   6.825	 416.395
 2082	 12.3640	  4.1862	   6.829	 416.595
 2083	 12.3480	  4.1887	   6.831	 416.795
 2084	 12.3320	  4.1924	   6.835	 416.995
 2085	 12.3160	  4.1962	   6.839	 417.195
 2086	 12.3000	  4.1987	   6.841	 417.395
 2087	 12.2840	  4.2024	   6.845	 417.595
 2088	 12.2640	  4.2049	   6.847	 417.795
 2089	 12.2440	  4.2087	   6.851	 417.995
 2090	 12.2200	  4.2124	   6.855	 418.195
 2091	 12.1880	  4.2149	   6.858	 418.395
 2092	 12.1120	  4.2187	   6.861	 418.595
ControlMode:	0
Rate:	  1.0000
(null)
4
step	1
0
5.000000
0.000000
1
1
0.500000
2
step	2
1
5.000000
0.000000
1
1
2.000000
3
step	3
5
2.000000
0.000000
1
0
30.000000
4
step	4
8
0.000000
0.000000
0
0
0.000000
0
2
